#Wave		#Intensity
1.699584	325.192444
1.699649	382.579346
1.699714	401.638794
1.699779	363.324615
1.699844	377.601013
1.699908	310.630646
1.699973	324.911224
1.700038	449.064301
1.700103	391.669189
1.700168	401.152710
1.700233	405.858124
1.700298	429.657806
1.700363	434.356689
1.700428	372.241364
1.700493	415.120483
1.700558	353.029968
1.700623	481.754883
1.700688	433.981354
1.700753	376.687927
1.700818	390.924957
1.700883	395.623962
1.700948	386.024139
1.701013	428.841614
1.701078	400.183014
1.701143	442.983215
1.701208	385.757446
1.701273	404.737274
1.701338	499.883209
1.701403	366.517700
1.701468	428.323334
1.701534	442.524353
1.701599	418.660400
1.701664	371.021301
1.701729	351.933807
1.701794	480.259155
1.701859	413.617157
1.701925	423.052551
1.701990	361.196014
1.702055	460.920624
1.702120	413.331696
1.702186	441.761078
1.702251	398.941162
1.702316	465.351044
1.702381	351.326904
1.702447	417.722076
1.702512	398.665924
1.702577	384.361542
1.702643	408.017181
1.702708	474.356781
1.702773	388.905487
1.702839	412.548065
1.702904	384.030243
1.702969	459.808777
1.703035	402.855774
1.703100	454.911621
1.703166	379.027649
1.703231	450.017761
1.703297	412.050507
1.703362	454.598053
1.703427	374.031860
1.703493	430.772583
1.703558	449.630157
1.703624	373.838562
1.703689	440.012604
1.703755	444.667297
1.703820	472.968842
1.703886	406.683136
1.703952	368.788635
1.704017	378.179596
1.704083	444.284515
1.704148	392.226227
1.704214	420.507507
1.704280	514.914917
1.704345	467.594513
1.704411	401.400909
1.704476	424.939575
1.704542	429.587189
1.704608	490.872284
1.704674	415.281982
1.704739	457.675232
1.704805	500.053894
1.704871	410.350983
1.704936	419.712097
1.705002	485.650665
1.705068	466.710144
1.705134	428.922424
1.705199	475.974854
1.705265	442.910309
1.705331	471.100159
1.705397	423.917236
1.705463	452.100616
1.705528	475.565765
1.705594	367.205444
1.705660	451.867493
1.705726	376.491516
1.705792	475.238831
1.705858	461.043549
1.705924	493.890350
1.705989	460.885101
1.706056	451.401703
1.706121	357.298279
1.706187	479.449493
1.706253	404.172272
1.706319	483.983643
1.706385	507.390839
1.706451	389.872253
1.706517	455.555603
1.706583	539.998901
1.706649	469.483643
1.706715	478.791077
1.706781	459.935974
1.706847	469.241821
1.706913	478.544495
1.706980	478.462341
1.707046	511.210205
1.707112	511.122467
1.707178	440.708862
1.707244	435.945618
1.707310	482.738647
1.707376	431.110046
1.707443	477.887817
1.707509	482.490173
1.707575	402.786743
1.707641	444.862518
1.707707	407.330536
1.707773	397.898346
1.707840	496.117523
1.707906	566.225708
1.707972	430.444885
1.708038	425.693115
1.708105	416.265839
1.708171	476.986908
1.708237	439.500793
1.708303	476.823364
1.708370	532.828857
1.708436	462.640503
1.708503	448.544189
1.708569	453.138855
1.708635	481.085571
1.708702	513.692688
1.708768	527.612061
1.708834	527.521606
1.708901	513.428650
1.708967	522.674133
1.709034	522.584595
1.709100	513.164795
1.709167	452.440552
1.709233	424.381836
1.709299	470.936523
1.709366	517.475281
1.709432	540.692383
1.709499	475.354980
1.709566	493.911774
1.709632	517.120911
1.709699	493.742645
1.709765	558.858276
1.709832	498.229980
1.709898	479.522461
1.709965	488.749908
1.710032	460.742493
1.710098	488.582642
1.710165	507.108521
1.710231	502.370178
1.710298	502.284210
1.710365	460.348419
1.710431	474.217255
1.710498	474.136108
1.710565	525.178589
1.710631	492.561157
1.710698	520.352966
1.710765	520.263977
1.710832	510.886139
1.710898	487.580658
1.710965	506.068634
1.711032	543.118408
1.711099	552.308044
1.711165	496.528198
1.711232	589.236450
1.711299	463.886414
1.711366	496.273621
1.711433	496.188812
1.711500	570.287781
1.711566	533.104797
1.711633	486.664673
1.711700	449.508636
1.711767	430.898590
1.711834	560.535706
1.711901	523.386047
1.711968	514.034790
1.712035	541.727905
1.712102	513.859192
1.712169	486.000000
1.712236	601.611511
1.712303	439.564117
1.712370	536.639282
1.712437	518.046021
1.712504	499.459076
1.712571	457.759338
1.712638	522.403748
1.712705	531.559082
1.712772	494.496674
1.712839	485.170929
1.712906	591.345520
1.712973	609.721008
1.713040	563.433838
1.713107	494.074860
1.713175	526.307739
1.713242	590.841187
1.713309	586.125244
1.713376	442.979706
1.713443	572.084534
1.713511	544.310120
1.713578	613.397461
1.713645	557.958191
1.713712	525.589966
1.713779	659.180237
1.713847	539.237305
1.713914	534.537292
1.713981	552.875366
1.714048	520.535522
1.714116	538.869690
1.714183	483.518585
1.714250	584.727539
1.714318	497.163879
1.714385	543.104980
1.714453	575.225037
1.714520	579.728027
1.714587	515.226013
1.714655	662.320557
1.714722	579.431763
1.714789	537.952148
1.714857	547.054688
1.714924	574.539368
1.714992	592.823669
1.715059	569.748962
1.715127	542.088135
1.715194	523.623047
1.715262	592.419922
1.715329	573.952576
1.715397	573.854858
1.715464	559.987000
1.715532	500.231049
1.715599	564.384827
1.715667	564.288757
1.715734	591.714294
1.715802	609.958191
1.715870	568.586060
1.715937	614.335205
1.716005	522.554443
1.716073	600.377075
1.716140	540.705627
1.716208	627.661621
1.716275	618.393433
1.716343	554.169434
1.716411	522.021240
1.716478	553.980957
1.716546	563.041870
1.716614	604.137268
1.716682	608.610596
1.716749	603.931824
1.716817	580.956848
1.716885	608.300171
1.716953	621.915466
1.717021	598.949097
1.717088	626.275391
1.717156	575.892578
1.717224	616.922913
1.717292	621.387024
1.717360	630.417908
1.717427	607.473450
1.717495	621.070313
1.717563	648.360291
1.717631	698.466675
1.717699	552.288269
1.717767	588.703186
1.717835	629.668518
1.717903	588.503174
1.717971	638.577148
1.718039	624.787170
1.718107	569.964478
1.718175	647.369690
1.718243	560.654602
1.718311	587.903748
1.718379	610.586975
1.718447	615.039185
1.718515	596.714478
1.718583	628.493225
1.718651	637.493591
1.718719	591.857849
1.718787	605.413330
1.718855	559.798523
1.718923	627.960022
1.718992	718.846741
1.719060	650.491394
1.719128	563.966736
1.719196	613.891846
1.719264	700.172668
1.719332	504.584259
1.719401	704.480103
1.719469	627.108154
1.719537	654.262756
1.719605	635.980896
1.719674	617.705200
1.719742	694.800537
1.719810	640.197754
1.719878	680.945984
1.719947	649.058411
1.720015	612.643555
1.720083	603.465027
1.720152	630.582092
1.720220	689.440491
1.720288	612.228210
1.720357	671.069763
1.720425	670.955994
1.720493	666.309570
1.720562	625.409119
1.720630	607.178406
1.720699	656.910034
1.720767	688.506287
1.720835	634.043091
1.720904	661.104309
1.720972	670.046997
1.721041	624.667725
1.721109	665.294189
1.721178	642.556274
1.721246	619.826050
1.721315	646.862183
1.721383	655.798096
1.721452	669.252991
1.721520	678.182068
1.721589	673.546814
1.721658	754.787048
1.721726	623.610657
1.721795	591.877991
1.721864	623.399536
1.721932	659.427002
1.722001	645.767822
1.722069	699.839661
1.722138	681.663879
1.722207	663.494263
1.722275	627.279541
1.722344	685.829895
1.722413	618.044739
1.722481	663.045288
1.722550	717.050110
1.722619	703.401794
1.722688	694.266357
1.722756	667.104187
1.722825	703.044922
1.722894	693.914124
1.722963	657.755371
1.723032	635.122070
1.723101	720.584045
1.723169	670.930420
1.723238	612.289307
1.723307	666.202209
1.723376	688.592590
1.723445	719.975098
1.723514	670.363464
1.723583	652.256836
1.723651	692.624634
1.723720	719.488403
1.723789	602.469727
1.723858	696.768799
1.723927	719.123718
1.723996	727.989685
1.724065	705.401672
1.724134	745.712708
1.724203	664.739929
1.724272	714.025635
1.724341	749.824768
1.724410	632.978638
1.724479	700.198486
1.724549	632.764832
1.724618	708.935852
1.724687	767.136475
1.724756	645.900574
1.724825	722.030762
1.724894	641.198547
1.724963	663.506042
1.725032	753.041870
1.725101	645.355469
1.725171	694.536194
1.725240	680.978577
1.725309	716.698547
1.725378	743.449219
1.725447	765.713013
1.725517	711.858643
1.725586	747.549255
1.725655	787.703369
1.725724	689.124146
1.725794	706.904175
1.725863	715.731567
1.725932	733.501099
1.726002	711.018250
1.726071	697.485168
1.726140	777.832947
1.726210	733.006287
1.726279	697.132263
1.726348	679.142517
1.726418	679.027954
1.726487	768.244202
1.726557	763.648865
1.726626	683.149536
1.726696	687.498657
1.726765	638.283997
1.726834	731.894592
1.726904	660.378906
1.726973	678.112610
1.727043	731.524536
1.727112	637.746155
1.727182	771.409058
1.727251	713.321655
1.727321	766.691528
1.727390	713.081238
1.727460	744.153137
1.727530	761.848755
1.727599	819.628967
1.727669	721.508301
1.727738	699.121704
1.727808	707.908447
1.727878	787.916321
1.727947	769.980530
1.728017	805.450928
1.728087	734.127136
1.728156	787.385620
1.728226	742.775452
1.728296	800.461487
1.728365	795.880432
1.728435	760.182312
1.728505	786.722900
1.728575	675.490112
1.728644	750.911926
1.728714	795.210693
1.728784	763.984436
1.728854	750.532776
1.728923	790.368896
1.728993	834.631165
1.729063	767.908997
1.729133	789.969971
1.729203	838.647156
1.729273	776.394470
1.729343	723.034363
1.729412	745.087952
1.729482	789.305603
1.729552	837.941895
1.729622	780.174438
1.729692	797.771423
1.729762	753.324097
1.729832	793.072510
1.729902	881.535706
1.729972	770.660400
1.730042	783.815796
1.730112	757.118469
1.730182	801.259644
1.730252	787.846558
1.730322	796.564819
1.730392	752.184753
1.730462	787.449280
1.730532	782.893799
1.730602	800.451721
1.730672	756.100769
1.730743	738.290100
1.730813	800.048218
1.730883	795.494324
1.730953	729.080566
1.731023	808.480774
1.731093	790.676208
1.731164	843.540649
1.731234	830.151794
1.731304	852.087158
1.731374	807.801819
1.731444	900.349121
1.731515	750.164917
1.731585	851.514771
1.731655	882.250488
1.731725	873.281311
1.731796	846.676025
1.731866	850.942871
1.731936	802.308777
1.732007	824.211792
1.732077	894.582397
1.732147	788.686523
1.732218	748.906128
1.732288	814.849243
1.732358	757.462402
1.732429	854.203735
1.732499	801.231873
1.732570	827.507202
1.732640	822.967407
1.732710	849.230225
1.732781	862.285950
1.732851	914.925415
1.732922	826.813049
1.732992	875.043579
1.733063	848.517944
1.733133	782.439636
1.733204	931.738098
1.733274	843.696716
1.733345	799.619995
1.733416	817.057007
1.733486	922.328979
1.733557	860.695984
1.733627	834.208252
1.733698	847.237854
1.733769	860.263062
1.733839	846.953735
1.733910	859.974548
1.733980	921.246826
1.734051	947.409302
1.734122	894.625427
1.734193	850.628601
1.734263	955.700806
1.734334	872.259521
1.734405	894.025696
1.734475	850.058411
1.734546	920.012146
1.734617	836.632690
1.734688	854.010681
1.734758	871.382751
1.734829	901.883301
1.734900	805.430664
1.734971	879.698059
1.735042	875.174805
1.735113	971.281250
1.735183	826.763062
1.735254	914.098083
1.735325	944.555542
1.735396	988.119446
1.735467	904.895874
1.735538	952.822510
1.735609	874.002686
1.735680	873.856323
1.735751	882.447083
1.735822	882.299316
1.735893	930.189575
1.735964	890.736633
1.736035	873.125000
1.736106	886.073486
1.736177	877.196838
1.736248	872.686584
1.736319	916.167542
1.736390	933.462036
1.736461	885.332153
1.736532	902.626038
1.736603	850.157593
1.736674	841.297180
1.736745	937.039551
1.736817	827.942871
1.736888	936.726013
1.736959	975.774475
1.737030	875.436890
1.737101	888.354431
1.737172	875.143982
1.737244	970.768494
1.737315	896.613708
1.737386	939.981384
1.737457	922.419983
1.737528	922.265747
1.737600	909.062744
1.737671	965.445862
1.737742	900.062500
1.737814	886.869751
1.737885	978.001648
1.737956	903.957031
1.738028	1008.091187
1.738099	894.965820
1.738170	916.535034
1.738242	899.009644
1.738313	985.705688
1.738384	1024.615234
1.738456	911.581543
1.738527	998.231934
1.738599	972.028625
1.738670	1023.930420
1.738742	902.296387
1.738813	863.110474
1.738885	988.725159
1.738956	927.858887
1.739028	966.719421
1.739099	949.220581
1.739171	992.398193
1.739242	1031.228394
1.739314	896.758911
1.739385	918.266357
1.739457	983.073792
1.739528	1000.229614
1.739600	1008.721130
1.739672	952.281494
1.739743	1025.695557
1.739815	1034.178467
1.739887	969.110046
1.739958	1007.879211
1.740030	960.136597
1.740101	903.761475
1.740173	1003.050964
1.740245	976.946899
1.740317	911.953003
1.740388	1015.512756
1.740460	1075.831787
1.740532	881.257263
1.740604	1023.642700
1.740675	988.924255
1.740747	1062.160645
1.740819	1061.983398
1.740891	971.164124
1.740963	1048.682251
1.741034	1143.433838
1.741106	1013.819336
1.741178	1017.963623
1.741250	1056.608032
1.741322	970.192383
1.741394	1000.209290
1.741466	1034.526733
1.741538	939.538330
1.741610	1120.363403
1.741681	1064.167725
1.741753	1003.683105
1.741825	1020.743469
1.741897	1046.410522
1.741969	1016.097595
1.742041	1020.232971
1.742113	1071.711548
1.742185	1054.319580
1.742257	1079.959595
1.742329	1071.175659
1.742401	1139.816162
1.742474	1139.626221
1.742546	1031.942261
1.742618	1104.854004
1.742690	997.211670
1.742762	979.855042
1.742834	1082.817261
1.742906	1086.932983
1.742978	1035.206299
1.743051	1142.402466
1.743123	1047.743408
1.743195	1081.915405
1.743267	1047.394287
1.743340	1030.052246
1.743412	1038.463013
1.743484	1016.837769
1.743556	1059.565796
1.743629	1089.412476
1.743701	1235.033569
1.743773	1071.899292
1.743845	1114.589600
1.743918	1101.545410
1.743990	1084.220215
1.744062	981.205811
1.744135	1135.267456
1.744207	1092.245239
1.744280	1070.650391
1.744352	1113.291016
1.744424	1117.386841
1.744497	1134.322754
1.744569	1087.056641
1.744642	1176.735474
1.744714	1116.643066
1.744786	1129.290039
1.744859	1009.348816
1.744931	1133.190308
1.745004	1081.696045
1.745076	1115.714111
1.745149	1145.446899
1.745221	1123.889526
1.745294	1072.430908
1.745367	1127.787476
1.745439	1131.871094
1.745512	1174.387817
1.745584	1212.620605
1.745657	1041.655640
1.745729	1143.923218
1.745802	1130.929932
1.745875	1194.746094
1.745947	1113.488770
1.746020	1177.286621
1.746093	1270.916870
1.746166	1181.159180
1.746238	1117.011719
1.746311	1210.605225
1.746384	1103.854248
1.746456	1048.274170
1.746529	1171.656372
1.746602	1120.343262
1.746675	1188.303467
1.746747	1166.813721
1.746820	1124.042358
1.746893	1221.767212
1.746966	1115.156006
1.747039	1080.925781
1.747112	1127.550049
1.747184	1135.871094
1.747257	1173.963745
1.747330	1071.701782
1.747403	1092.784180
1.747476	1075.597046
1.747549	1198.687622
1.747622	1185.738647
1.747695	1194.040161
1.747768	1083.379517
1.747841	1214.882568
1.747914	1218.927979
1.747987	1184.754028
1.748060	1205.785889
1.748133	1137.665283
1.748206	1141.720581
1.748279	1192.454346
1.748352	1226.199463
1.748425	1166.605103
1.748498	1183.377319
1.748571	1204.384766
1.748644	1225.385254
1.748717	1165.830322
1.748791	1267.365112
1.748864	1250.202759
1.748937	1127.114380
1.749010	1143.873535
1.749083	1194.514038
1.749156	1321.370605
1.749229	1316.916748
1.749303	1168.516724
1.749376	1181.021973
1.749449	1333.190552
1.749522	1218.714844
1.749596	1239.667236
1.749669	1205.619629
1.749742	1239.255859
1.749816	1247.507935
1.749889	1234.616577
1.749962	1365.462280
1.750035	1268.020752
1.750109	1204.419922
1.750182	1297.177368
1.750256	1263.165161
1.750329	1157.357300
1.750402	1271.192627
1.750476	1241.424072
1.750549	1262.327271
1.750623	1312.771484
1.750696	1283.010742
1.750769	1219.501953
1.750843	1206.642700
1.750916	1290.809204
1.750990	1400.253540
1.751063	1294.598145
1.751137	1344.978271
1.751211	1281.522217
1.751284	1264.450439
1.751358	1302.168091
1.751431	1205.043091
1.751505	1335.438232
1.751578	1272.036255
1.751652	1276.036743
1.751725	1258.982666
1.751799	1254.564087
1.751873	1338.541138
1.751946	1334.110718
1.752020	1266.563965
1.752094	1190.625366
1.752167	1350.273438
1.752241	1303.786377
1.752315	1349.826050
1.752389	1358.011108
1.752462	1366.193481
1.752536	1340.749268
1.752610	1340.527222
1.752684	1365.514648
1.752757	1348.484863
1.752831	1306.259644
1.752905	1314.442261
1.752979	1293.230469
1.753053	1402.166992
1.753127	1263.420288
1.753200	1363.932251
1.753274	1342.726196
1.753348	1317.331909
1.753422	1283.556763
1.753496	1379.804810
1.753570	1346.030396
1.753644	1291.304443
1.753718	1295.282471
1.753792	1353.744263
1.753866	1361.901123
1.753940	1332.347168
1.754014	1281.857788
1.754088	1432.427368
1.754162	1348.436523
1.754236	1373.335327
1.754310	1276.822998
1.754384	1339.395874
1.754458	1447.982056
1.754532	1305.478760
1.754606	1388.933472
1.754680	1380.337891
1.754754	1438.659546
1.754828	1413.332764
1.754902	1425.641235
1.754977	1429.585449
1.755051	1412.631470
1.755125	1341.359985
1.755199	1395.452148
1.755273	1445.348999
1.755347	1361.577515
1.755422	1403.111572
1.755496	1377.828125
1.755570	1331.680176
1.755645	1360.677002
1.755719	1352.105591
1.755793	1422.814087
1.755867	1430.922363
1.755942	1380.632568
1.756016	1422.108398
1.756090	1567.813354
1.756165	1492.511597
1.756239	1454.749878
1.756314	1408.665161
1.756388	1412.599243
1.756462	1479.026123
1.756537	1428.794556
1.756611	1353.590332
1.756685	1399.172852
1.756760	1361.469971
1.756834	1469.478516
1.756909	1460.911377
1.756983	1439.862671
1.757058	1493.714600
1.757132	1526.748413
1.757207	1526.496094
1.757281	1463.863403
1.757356	1467.779541
1.757431	1455.064941
1.757505	1458.981201
1.757580	1546.015259
1.757654	1504.207153
1.757729	1429.176147
1.757804	1491.248535
1.757878	1540.840698
1.757953	1590.416504
1.758028	1399.169189
1.758102	1452.903076
1.758177	1402.857544
1.758252	1460.722778
1.758326	1477.078003
1.758401	1539.060181
1.758476	1555.396973
1.758550	1530.257813
1.758625	1509.273438
1.758700	1496.587158
1.758775	1512.920044
1.758850	1558.257568
1.758924	1458.553467
1.758999	1495.599121
1.759074	1478.783203
1.759149	1519.954712
1.759224	1532.126465
1.759298	1486.331421
1.759373	1444.690918
1.759448	1626.561035
1.759523	1597.325562
1.759598	1510.175171
1.759673	1551.293823
1.759748	1555.173828
1.759823	1658.302734
1.759898	1571.199585
1.759973	1690.827881
1.760048	1566.547729
1.760123	1512.564331
1.760198	1508.182739
1.760273	1594.691772
1.760348	1639.865845
1.760423	1668.505005
1.760498	1552.609863
1.760573	1676.211792
1.760648	1510.818604
1.760723	1626.132080
1.760798	1559.838867
1.760874	1567.833374
1.760949	1604.701538
1.761024	1497.199463
1.761099	1562.933960
1.761174	1587.415161
1.761249	1578.908447
1.761325	1669.327637
1.761400	1611.356812
1.761475	1619.331909
1.761550	1627.304443
1.761626	1614.678955
1.761701	1688.543945
1.761776	1745.913696
1.761851	1659.167969
1.761927	1527.170898
1.762002	1658.621094
1.762077	1629.542603
1.762153	1711.560547
1.762228	1616.664551
1.762303	1624.624023
1.762379	1661.366943
1.762454	1648.758301
1.762529	1677.263184
1.762605	1676.986816
1.762680	1746.573364
1.762756	1717.523193
1.762831	1717.240234
1.762907	1597.838257
1.762982	1614.002563
1.763058	1617.842773
1.763133	1601.154175
1.763209	1654.253418
1.763284	1686.814331
1.763360	1666.018921
1.763435	1604.202271
1.763511	1710.593750
1.763586	1677.500244
1.763662	1677.223999
1.763738	1631.846436
1.763813	1725.864868
1.763889	1696.889282
1.763964	1774.473511
1.764040	1725.012329
1.764116	1716.534790
1.764191	1744.924683
1.764267	1728.255737
1.764343	1658.360962
1.764419	1653.993896
1.764494	1776.522705
1.764570	1747.581421
1.764646	1735.017578
1.764722	1681.544434
1.764797	1681.267700
1.764873	1783.240967
1.764949	1578.480957
1.765025	1639.551025
1.765100	1733.304810
1.765176	1704.408325
