#Wave		#Intensity
1.699584	377.797089
1.699649	363.450378
1.699714	396.857391
1.699779	430.252808
1.699844	391.940308
1.699908	391.872498
1.699973	415.695251
1.700038	420.400604
1.700103	367.786926
1.700168	386.825806
1.700233	362.884918
1.700298	362.822144
1.700363	353.213135
1.700428	415.192261
1.700493	367.405487
1.700558	438.902100
1.700623	443.596100
1.700688	414.905243
1.700753	491.124786
1.700818	352.785950
1.700883	390.857422
1.700948	409.852783
1.701013	385.957428
1.701078	347.778076
1.701143	433.456696
1.701208	404.807190
1.701273	385.690796
1.701338	404.667358
1.701403	361.757751
1.701468	380.731842
1.701534	356.874481
1.701599	404.387909
1.701664	404.318085
1.701729	409.004150
1.701794	323.342804
1.701859	404.108704
1.701925	346.998169
1.701990	437.237274
1.702055	389.644226
1.702120	365.822296
1.702186	346.758698
1.702251	403.690460
1.702316	408.369293
1.702381	356.074554
1.702447	365.506805
1.702512	351.205688
1.702577	412.832764
1.702643	417.505951
1.702708	450.638947
1.702773	422.104736
1.702839	384.096466
1.702904	421.959167
1.702969	374.483459
1.703035	431.292633
1.703100	450.172943
1.703166	379.027649
1.703231	416.858551
1.703297	374.160797
1.703362	416.714874
1.703427	426.112244
1.703493	426.038818
1.703558	449.630157
1.703624	326.517212
1.703689	425.818634
1.703755	335.865723
1.703820	392.564148
1.703886	373.581024
1.703952	411.341156
1.704017	420.724823
1.704083	387.567352
1.704148	382.774994
1.704214	434.681915
1.704280	410.987122
1.704345	462.871338
1.704411	415.568024
1.704476	415.496490
1.704542	443.749390
1.704608	434.233185
1.704674	467.192230
1.704739	344.436005
1.704805	391.551636
1.704871	372.617554
1.704936	448.007294
1.705002	429.070007
1.705068	518.566833
1.705134	405.355255
1.705199	457.124359
1.705265	442.910309
1.705331	423.990143
1.705397	428.627411
1.705463	419.134949
1.705528	423.771454
1.705594	508.438324
1.705660	470.695282
1.705726	409.434509
1.705792	409.364136
1.705858	465.748077
1.705924	451.556885
1.705989	418.558929
1.706056	413.784882
1.706121	451.324127
1.706187	347.835907
1.706253	347.776154
1.706319	427.597198
1.706385	375.845062
1.706451	441.542084
1.706517	455.555603
1.706583	436.694794
1.706649	446.009460
1.706715	511.649292
1.706781	483.402100
1.706847	492.703918
1.706913	426.936768
1.706980	483.153137
1.707046	440.860199
1.707112	436.095306
1.707178	473.527588
1.707244	426.570465
1.707310	496.798981
1.707376	454.539917
1.707443	416.980530
1.707509	435.646484
1.707575	444.938873
1.707641	412.083191
1.707707	505.651703
1.707773	444.709900
1.707840	435.272919
1.707906	439.877808
1.707972	449.159882
1.708038	537.963806
1.708105	477.068726
1.708171	519.073975
1.708237	425.474182
1.708303	448.774933
1.708370	415.980438
1.708436	429.928528
1.708503	387.803833
1.708569	467.153442
1.708635	453.061188
1.708702	495.012939
1.708768	471.582458
1.708834	406.144989
1.708901	429.413055
1.708967	476.006805
1.709034	438.597809
1.709100	447.852936
1.709167	452.440552
1.709233	438.372437
1.709299	456.948334
1.709366	484.841705
1.709432	475.436401
1.709499	489.335999
1.709566	517.209473
1.709632	414.628510
1.709699	456.479065
1.709765	475.029510
1.709832	437.697357
1.709898	405.033539
1.709965	432.892792
1.710032	479.358337
1.710098	483.929474
1.710165	469.889557
1.710231	469.809143
1.710298	455.776428
1.710365	492.898315
1.710431	432.374542
1.710498	450.894165
1.710565	562.359375
1.710631	464.680328
1.710698	446.016815
1.710765	464.521393
1.710832	524.819397
1.710898	413.282654
1.710965	445.711823
1.711032	478.129883
1.711099	445.559418
1.711165	459.404602
1.711232	515.001953
1.711299	510.275055
1.711366	473.083282
1.711433	542.561584
1.711500	412.647278
1.711566	472.840759
1.711633	472.759979
1.711700	481.947418
1.711767	477.231750
1.711834	542.005615
1.711901	407.592682
1.711968	476.987213
1.712035	449.124817
1.712102	495.341736
1.712169	578.571411
1.712236	509.055908
1.712303	467.326080
1.712370	453.367676
1.712437	541.173035
1.712504	541.080688
1.712571	554.859802
1.712638	503.911621
1.712705	489.958832
1.712772	545.332764
1.712839	494.412262
1.712906	595.965393
1.712973	452.671631
1.713040	480.304260
1.713107	494.074860
1.713175	489.373840
1.713242	516.986023
1.713309	521.513000
1.713376	530.652771
1.713443	498.267151
1.713511	488.956573
1.713578	456.589111
1.713645	511.845917
1.713712	557.863037
1.713779	465.574860
1.713847	516.192993
1.713914	511.496918
1.713981	543.660767
1.714048	515.929016
1.714116	529.658264
1.714183	621.666748
1.714250	534.081848
1.714318	557.007690
1.714385	520.092041
1.714453	561.419617
1.714520	529.116882
1.714587	510.625763
1.714655	542.734924
1.714722	579.431763
1.714789	505.766937
1.714857	583.831482
1.714924	514.787292
1.714992	528.486206
1.715059	583.533203
1.715127	519.118286
1.715194	509.843506
1.715262	523.533875
1.715329	541.811218
1.715397	532.537292
1.715464	426.875305
1.715532	472.695404
1.715599	454.260956
1.715667	532.174744
1.715734	536.671082
1.715802	559.510559
1.715870	577.756775
1.715937	559.320129
1.716005	623.398254
1.716073	504.133392
1.716140	591.110413
1.716208	485.635986
1.716275	549.683044
1.716343	581.648926
1.716411	499.125580
1.716478	549.402588
1.716546	544.731567
1.716614	521.754944
1.716682	503.362122
1.716749	517.002258
1.716817	567.233459
1.716885	553.415955
1.716953	567.040588
1.717021	576.088440
1.717088	479.992065
1.717156	617.027771
1.717224	589.504089
1.717292	598.541931
1.717360	616.713196
1.717427	529.826477
1.717495	548.003235
1.717563	543.344177
1.717631	547.817017
1.717699	579.674500
1.717767	524.812927
1.717835	611.417236
1.717903	588.503174
1.717971	565.596863
1.718039	588.303284
1.718107	519.807617
1.718175	574.426636
1.718243	501.398407
1.718311	542.329773
1.718379	569.577454
1.718447	487.475494
1.718515	628.599976
1.718583	601.167480
1.718651	601.065430
1.718719	596.410645
1.718787	482.509888
1.718855	564.349731
1.718923	577.905273
1.718992	505.012573
1.719060	532.220215
1.719128	550.322388
1.719196	609.344543
1.719264	554.682190
1.719332	577.317139
1.719401	572.674133
1.719469	590.754089
1.719537	631.545288
1.719605	631.438171
1.719674	604.079346
1.719742	540.400391
1.719810	626.576538
1.719878	571.994629
1.719947	526.508911
1.720015	571.800659
1.720083	567.166382
1.720152	489.948669
1.720220	548.830933
1.720288	616.763245
1.720357	603.055908
1.720425	634.688110
1.720493	571.122498
1.720562	611.813232
1.720630	575.460144
1.720699	629.727600
1.720767	588.854065
1.720835	593.283142
1.720904	597.710754
1.720972	584.027466
1.721041	660.880371
1.721109	660.768372
1.721178	615.406006
1.721246	588.156128
1.721315	551.868408
1.721383	615.093384
1.721452	556.203491
1.721520	533.503235
1.721589	655.465027
1.721658	623.716248
1.721726	582.940369
1.721795	600.914307
1.721864	551.121338
1.721932	551.028015
1.722001	605.125061
1.722069	618.567932
1.722138	668.120850
1.722207	564.195801
1.722275	667.894775
1.722344	717.414185
1.722413	590.977051
1.722481	667.555786
1.722550	622.345337
1.722619	608.713135
1.722688	608.610168
1.722756	703.163879
1.722825	639.951172
1.722894	653.360718
1.722963	671.270935
1.723032	644.130920
1.723101	653.029297
1.723169	693.444885
1.723238	603.285095
1.723307	616.687195
1.723376	625.584106
1.723445	598.479309
1.723514	688.359802
1.723583	625.266907
1.723651	625.161194
1.723720	607.068359
1.723789	669.910339
1.723858	728.235779
1.723927	575.298950
1.723996	566.214233
1.724065	624.527588
1.724134	615.437561
1.724203	655.756958
1.724272	574.813110
1.724341	588.185913
1.724410	677.870728
1.724479	686.733154
1.724549	659.690979
1.724618	677.527344
1.724687	619.092590
1.724756	650.385986
1.724825	645.791504
1.724894	609.811218
1.724963	659.022888
1.725032	663.393982
1.725101	596.057495
1.725171	636.284729
1.725240	649.617737
1.725309	694.301697
1.725378	658.355652
1.725447	676.155945
1.725517	617.839539
1.725586	635.640686
1.725655	733.996338
1.725724	698.073792
1.725794	729.274536
1.725863	612.845154
1.725932	684.302856
1.726002	719.961914
1.726071	737.724670
1.726140	616.902039
1.726210	697.249878
1.726279	715.007446
1.726348	670.206421
1.726418	674.560669
1.726487	763.777649
1.726557	611.812256
1.726626	629.569214
1.726696	714.284302
1.726765	660.601624
1.726834	620.325256
1.726904	704.999084
1.726973	575.503479
1.727043	713.682434
1.727112	709.102417
1.727182	659.933777
1.727251	633.072937
1.727321	704.286438
1.727390	766.562378
1.727460	650.577026
1.727530	659.377869
1.727599	641.448792
1.727669	717.054565
1.727738	761.463806
1.727808	690.099426
1.727878	623.210632
1.727947	716.571472
1.728017	645.250732
1.728087	618.446533
1.728156	707.312500
1.728226	676.059082
1.728296	800.461487
1.728365	804.772949
1.728435	729.063721
1.728505	813.391479
1.728575	742.150330
1.728644	715.365784
1.728714	710.802856
1.728784	728.450256
1.728854	746.091736
1.728923	706.003723
1.728993	728.082520
1.729063	670.255859
1.729133	701.209290
1.729203	665.593018
1.729273	745.338745
1.729343	700.855347
1.729412	709.607544
1.729482	696.185242
1.729552	762.571472
1.729622	682.652649
1.729692	709.130188
1.729762	740.030151
1.729832	686.738770
1.729902	673.333801
1.729972	766.231323
1.730042	659.822327
1.730112	726.125305
1.730182	774.698547
1.730252	739.159424
1.730322	743.460510
1.730392	650.418579
1.730462	725.515076
1.730532	805.009460
1.730602	681.047302
1.730672	738.414185
1.730743	725.027405
1.730813	707.224915
1.730883	729.203125
1.730953	746.755249
1.731023	808.480774
1.731093	790.676208
1.731164	817.041992
1.731234	688.849365
1.731304	732.883240
1.731374	715.103271
1.731444	785.598755
1.731515	803.117737
1.731585	732.390930
1.731655	794.025452
1.731725	767.429016
1.731796	749.661072
1.731866	753.944214
1.731936	692.101501
1.732007	784.543884
1.732077	780.005310
1.732147	691.752991
1.732218	806.175415
1.732288	726.757446
1.732358	775.077820
1.732429	814.575684
1.732499	766.012878
1.732570	730.671204
1.732640	792.161133
1.732710	774.427551
1.732781	822.691223
1.732851	712.586121
1.732922	769.639832
1.732992	751.921875
1.733063	760.588623
1.733133	782.439636
1.733204	760.333435
1.733274	768.994385
1.733345	786.439453
1.733416	755.558105
1.733486	737.863220
1.733557	808.000305
1.733627	772.740234
1.733698	803.339478
1.733769	750.535645
1.733839	789.905029
1.733910	789.772583
1.733980	758.931946
1.734051	771.963135
1.734122	789.375366
1.734193	819.935852
1.734263	767.190979
1.734334	749.529541
1.734405	837.053467
1.734475	823.767944
1.734546	753.533752
1.734617	836.632690
1.734688	801.456177
1.734758	823.215881
1.734829	809.943726
1.734900	875.468140
1.734971	805.295715
1.735042	805.160767
1.735113	844.402161
1.735183	813.639832
1.735254	739.151062
1.735325	756.519043
1.735396	765.136719
1.735467	730.036743
1.735538	852.295349
1.735609	821.562561
1.735680	869.487061
1.735751	786.338989
1.735822	746.896973
1.735893	812.278198
1.735964	860.172119
1.736035	816.371887
1.736106	833.694763
1.736177	877.196838
1.736248	868.323120
1.736319	794.011841
1.736390	828.774719
1.736461	715.243713
1.736532	828.497314
1.736603	863.236938
1.736674	736.679932
1.736745	876.023010
1.736817	827.942871
1.736888	762.451355
1.736959	810.241333
1.737030	971.255798
1.737101	766.423462
1.737172	849.020264
1.737244	879.350830
1.737315	757.333923
1.737386	835.539001
1.737457	857.154419
1.737528	870.062012
1.737600	804.672791
1.737671	830.631348
1.737742	839.188721
1.737814	939.038574
1.737885	969.308289
1.737956	804.000244
1.738028	895.115417
1.738099	851.520874
1.738170	881.784912
1.738242	825.177917
1.738313	959.651794
1.738384	790.169373
1.738456	824.764221
1.738527	855.007324
1.738599	854.864441
1.738670	850.382935
1.738742	980.379700
1.738813	837.087036
1.738885	832.610657
1.738956	867.157837
1.739028	958.049316
1.739099	931.883240
1.739171	801.719055
1.739242	888.242981
1.739314	844.772888
1.739385	913.934937
1.739457	844.490723
1.739528	909.299683
1.739600	900.489258
1.739672	870.039001
1.739743	887.205017
1.739815	891.383972
1.739887	852.297668
1.739958	968.948242
1.740030	873.637817
1.740101	916.734131
1.740173	886.316589
1.740245	920.750854
1.740317	790.935547
1.740388	898.836792
1.740460	1023.984436
1.740532	894.216919
1.740604	872.471802
1.740675	941.421387
1.740747	898.086975
1.740819	897.937134
1.740891	910.736145
1.740963	919.215332
1.741034	841.394775
1.741106	957.735718
1.741178	936.008911
1.741250	987.604980
1.741322	952.944519
1.741394	849.315674
1.741466	948.316101
1.741538	939.538330
1.741610	965.236145
1.741681	960.766846
1.741753	926.145386
1.741825	925.990906
1.741897	977.511108
1.741969	951.515137
1.742041	934.137329
1.742113	912.461304
1.742185	959.645935
1.742257	912.157043
1.742329	894.797363
1.742401	997.876831
1.742474	1006.311462
1.742546	1006.143738
1.742618	881.303772
1.742690	919.841797
1.742762	872.414795
1.742834	928.129028
1.742906	962.343811
1.742978	970.774353
1.743051	931.959900
1.743123	1004.803101
1.743195	961.702576
1.743267	914.323730
1.743340	909.879517
1.743412	1047.045410
1.743484	926.738220
1.743556	943.742798
1.743629	999.342957
1.743701	982.023254
1.743773	956.134155
1.743845	921.679810
1.743918	994.391174
1.743990	981.369263
1.744062	964.066833
1.744135	1045.302856
1.744207	946.612549
1.744280	916.476746
1.744352	1061.908447
1.744424	1048.888062
1.744497	988.786987
1.744569	928.705872
1.744642	997.015869
1.744714	1061.024780
1.744786	992.406372
1.744859	1026.456421
1.744931	923.657043
1.745004	1000.461975
1.745076	957.547791
1.745149	1064.239868
1.745221	1059.789429
1.745294	986.978271
1.745367	1016.717529
1.745439	965.293823
1.745512	1063.354736
1.745584	1067.447632
1.745657	1101.422729
1.745729	1088.434448
1.745802	1011.435486
1.745875	951.529968
1.745947	1113.488770
1.746020	1006.665344
1.746093	1087.529541
1.746166	989.274109
1.746238	1061.587524
1.746311	1108.300537
1.746384	1048.448486
1.746456	1039.751587
1.746529	1107.747803
1.746602	1039.405884
1.746675	1060.528809
1.746747	1051.835693
1.746820	1004.825745
1.746893	1047.229004
1.746966	1144.950317
1.747039	1029.858398
1.747112	1106.275635
1.747184	1072.058105
1.747257	995.317139
1.747330	1139.746460
1.747403	1114.044556
1.747476	1020.329224
1.747549	1054.165039
1.747622	1045.489990
1.747695	1075.061035
1.747768	1104.622192
1.747841	1083.199585
1.747914	1036.301147
1.747987	1065.854004
1.748060	1052.939697
1.748133	1048.519775
1.748206	1014.391174
1.748279	1166.992676
1.748352	1009.811340
1.748425	1013.885864
1.748498	1077.339966
1.748571	1119.568970
1.748644	1076.982178
1.748717	1110.718384
1.748791	1063.908569
1.748864	1097.635620
1.748937	1076.267090
1.749010	1059.142090
1.749083	1084.381470
1.749156	1041.849854
1.749229	1062.849243
1.749303	1113.477905
1.749376	1049.797241
1.749449	1125.805420
1.749522	1100.228638
1.749596	1087.353271
1.749669	1116.784424
1.749742	1180.042236
1.749816	1120.642700
1.749889	1150.053711
1.749962	1069.541626
1.750035	1039.776978
1.750109	1124.125244
1.750182	1102.812012
1.750256	1132.201538
1.750329	1068.654785
1.750402	1026.245117
1.750476	1051.410156
1.750549	1228.552612
1.750623	1122.820557
1.750696	1223.924683
1.750769	1160.425781
1.750843	1147.576294
1.750916	1176.914307
1.750990	1117.672241
1.751063	1218.693359
1.751137	1138.382813
1.751211	1133.978516
1.751284	1293.954346
1.751358	1112.531982
1.751431	1103.920654
1.751505	1124.801270
1.751578	1107.766724
1.751652	1187.598633
1.751725	1200.033691
1.751799	1153.525391
1.751873	1220.682129
1.751946	1174.185791
1.752020	1148.744141
1.752094	1173.796631
1.752167	1089.473022
1.752241	1106.115479
1.752315	1143.777832
1.752389	1105.749023
1.752462	1164.417236
1.752536	1235.674927
1.752610	1164.031494
1.752684	1180.644897
1.752757	1209.855591
1.752831	1255.857300
1.752905	1175.858887
1.752979	1217.652100
1.753053	1192.261841
1.753127	1154.287598
1.753200	1204.457031
1.753274	1174.885498
1.753348	1166.300293
1.753422	1132.550049
1.753496	1212.047363
1.753570	1199.266968
1.753644	1182.298218
1.753718	1303.666138
1.753792	1236.391846
1.753866	1244.567993
1.753940	1181.515503
1.754014	1244.156006
1.754088	1164.370850
1.754162	1172.553467
1.754236	1331.465332
1.754310	1184.724243
1.754384	1176.156982
1.754458	1251.290894
1.754532	1213.425781
1.754606	1309.446289
1.754680	1233.938477
1.754754	1250.462891
1.754828	1275.344727
1.754902	1224.964478
1.754977	1216.401733
1.755051	1220.379883
1.755125	1236.892700
1.755199	1219.976074
1.755273	1261.547363
1.755347	1244.632202
1.755422	1261.130127
1.755496	1427.930908
1.755570	1273.236572
1.755645	1256.330566
1.755719	1335.412964
1.755793	1297.639893
1.755867	1176.443481
1.755942	1305.552856
1.756016	1267.803345
1.756090	1180.029663
1.756165	1271.553223
1.756239	1233.827881
1.756314	1262.797485
1.756388	1316.759155
1.756462	1308.208984
1.756537	1307.992676
1.756611	1282.787109
1.756685	1299.231934
1.756760	1249.055054
1.756834	1286.313965
1.756909	1202.858643
1.756983	1377.440796
1.757058	1310.640991
1.757132	1310.424438
1.757207	1422.511353
1.757281	1422.276367
1.757356	1272.352783
1.757431	1384.390381
1.757505	1334.281982
1.757580	1309.125854
1.757654	1267.356812
1.757729	1420.867065
1.757804	1354.169922
1.757878	1407.937988
1.757953	1407.705444
1.758028	1237.247559
1.758102	1365.728882
1.758177	1328.149170
1.758252	1298.881348
1.758326	1352.605103
1.758401	1302.600830
1.758476	1480.737915
1.758550	1335.346924
1.758625	1326.833740
1.758700	1459.276123
1.758775	1376.135498
1.758850	1280.589355
1.758924	1301.095947
1.758999	1313.310059
1.759074	1321.377686
1.759149	1358.433716
1.759224	1412.040894
1.759298	1386.966675
1.759373	1370.179688
1.759448	1378.231201
1.759523	1431.799683
1.759598	1377.776245
1.759673	1340.317871
1.759748	1488.996216
1.759823	1488.750610
1.759898	1352.058594
1.759973	1479.991211
1.760048	1426.013184
1.760123	1363.787476
1.760198	1342.902466
1.760273	1355.074951
1.760348	1342.459473
1.760423	1445.487061
1.760498	1412.214355
1.760573	1428.495728
1.760648	1333.317993
1.760723	1440.406250
1.760798	1378.270386
1.760874	1324.406616
1.760949	1456.194458
1.761024	1526.071167
1.761099	1364.989868
1.761174	1373.011108
1.761249	1533.561279
1.761325	1483.846802
1.761400	1574.266724
1.761475	1388.587402
1.761550	1483.112915
1.761626	1458.153931
1.761701	1408.492798
1.761776	1445.320068
1.761851	1416.262451
1.761927	1436.610840
1.762002	1465.183838
1.762077	1485.517334
1.762153	1588.130737
1.762228	1419.209351
1.762303	1472.444092
1.762379	1398.180054
1.762454	1439.065796
1.762529	1463.494385
1.762605	1467.363403
1.762680	1491.779175
1.762756	1573.711426
1.762831	1458.421753
1.762907	1491.041870
1.762982	1564.719971
1.763058	1539.824951
1.763133	1502.621582
1.763209	1580.366211
1.763284	1510.334961
1.763360	1534.707153
1.763435	1440.089478
1.763511	1546.507935
1.763586	1509.340088
1.763662	1570.603394
1.763738	1517.043213
1.763813	1541.390015
1.763889	1528.839844
1.763964	1458.920532
1.764040	1524.238892
1.764116	1540.374878
1.764191	1515.544922
1.764267	1543.963135
1.764343	1494.572266
1.764419	1465.667847
1.764494	1489.986816
1.764570	1592.058960
1.764646	1518.140381
1.764722	1431.972168
1.764797	1570.819458
1.764873	1701.440918
1.764949	1635.731567
1.765025	1615.019165
1.765100	1492.113770
1.765176	1630.836792
1.765252	1606.048584
1.765328	1544.494751
1.765404	1593.264160
