#Wave		#Intensity
1.699584	329.974670
1.699649	387.361572
1.699714	411.201630
1.699779	358.544006
1.699844	353.702240
1.699908	296.293854
1.699973	324.911224
1.700038	415.623322
1.700103	453.763062
1.700168	300.864532
1.700233	343.785706
1.700298	353.274200
1.700363	381.852020
1.700428	391.330658
1.700493	310.147491
1.700558	381.653992
1.700623	362.508636
1.700688	395.829163
1.700753	386.224335
1.700818	405.227112
1.700883	352.724976
1.700948	285.943817
1.701013	376.427612
1.701078	285.845001
1.701143	409.640381
1.701208	380.994995
1.701273	395.214050
1.701338	409.428162
1.701403	314.158020
1.701468	375.972717
1.701534	423.491058
1.701599	399.630402
1.701664	347.237885
1.701729	394.736542
1.701794	408.933533
1.701859	370.829163
1.701925	370.765167
1.701990	422.979553
1.702055	413.403015
1.702120	285.056335
1.702186	318.257965
1.702251	394.191864
1.702316	451.105591
1.702381	375.065216
1.702447	346.519440
1.702512	427.142059
1.702577	493.501251
1.702643	450.716675
1.702708	384.228973
1.702773	341.477966
1.702839	384.096466
1.702904	374.548035
1.702969	502.471466
1.703035	379.158356
1.703100	450.172943
1.703166	435.881805
1.703231	388.436401
1.703297	402.578064
1.703362	416.714874
1.703427	388.235596
1.703493	435.506348
1.703558	340.772339
1.703624	435.356293
1.703689	383.236786
1.703755	373.709747
1.703820	416.212585
1.703886	411.412018
1.703952	420.797272
1.704017	411.270325
1.704083	387.567352
1.704148	406.403076
1.704214	481.929962
1.704280	434.607086
1.704345	406.193207
1.704411	406.123291
1.704476	472.155090
1.704542	344.613892
1.704608	382.313995
1.704674	457.753998
1.704739	396.337311
1.704805	415.139069
1.704871	400.917603
1.704936	490.450104
1.705002	344.199005
1.705068	452.567413
1.705134	306.373138
1.705199	315.745697
1.705265	475.893005
1.705331	442.834137
1.705397	390.945892
1.705463	437.972473
1.705528	386.102875
1.705594	456.652954
1.705660	442.453583
1.705726	475.320526
1.705792	432.890808
1.705858	442.225464
1.705924	428.038300
1.705989	479.696747
1.706056	423.189087
1.706121	418.415100
1.706187	427.744171
1.706253	446.469391
1.706319	394.705109
1.706385	465.108246
1.706451	422.753052
1.706517	474.341400
1.706583	422.607849
1.706649	375.586914
1.706715	445.932861
1.706781	445.856293
1.706847	455.164581
1.706913	412.861908
1.706980	440.935883
1.707046	459.620209
1.707112	440.784515
1.707178	492.281158
1.707244	398.444916
1.707310	459.304718
1.707376	426.424042
1.707443	445.091583
1.707509	496.543274
1.707575	496.458099
1.707641	383.986603
1.707707	444.786224
1.707773	458.753387
1.707840	463.355042
1.707906	477.314240
1.707972	444.481140
1.708038	491.184357
1.708105	374.171539
1.708171	528.426697
1.708237	420.798645
1.708303	500.197052
1.708370	495.437378
1.708436	429.928528
1.708503	434.527191
1.708569	467.153442
1.708635	518.451477
1.708702	382.934540
1.708768	485.589844
1.708834	415.481628
1.708901	504.093597
1.708967	448.006409
1.709034	401.270325
1.709100	480.508881
1.709167	433.783203
1.709233	387.073547
1.709299	424.309143
1.709366	480.179749
1.709432	484.758667
1.709499	549.920471
1.709566	424.018585
1.709632	503.144684
1.709699	503.058563
1.709765	600.772644
1.709832	419.071960
1.709898	465.555786
1.709965	460.821350
1.710032	442.126617
1.710098	497.888977
1.710165	488.499023
1.710231	432.596527
1.710298	386.014740
1.710365	497.548309
1.710431	492.813995
1.710498	483.432892
1.710565	520.531006
1.710631	478.620728
1.710698	520.352966
1.710765	436.650116
1.710832	529.463806
1.710898	417.926270
1.710965	506.068634
1.711032	440.993561
1.711099	389.864502
1.711165	440.842804
1.711232	450.046753
1.711299	459.247559
1.711366	468.445190
1.711433	500.826080
1.711500	528.559448
1.711566	528.469116
1.711633	417.141144
1.711700	426.338104
1.711767	472.598450
1.711834	514.210449
1.711901	477.068726
1.711968	439.939667
1.712035	560.248474
1.712102	462.936218
1.712169	495.257141
1.712236	499.800354
1.712303	448.818115
1.712370	527.386902
1.712437	453.290253
1.712504	550.329895
1.712571	448.511658
1.712638	462.304230
1.712705	522.314575
1.712772	503.739594
1.712839	568.343079
1.712906	498.947784
1.712973	494.243530
1.713040	540.342285
1.713107	512.544983
1.713175	530.924438
1.713242	480.058441
1.713309	498.437195
1.713376	535.267151
1.713443	549.016602
1.713511	465.892578
1.713578	507.321228
1.713645	562.569397
1.713712	567.083923
1.713779	451.745911
1.713847	525.410706
1.713914	493.064575
1.713981	548.268066
1.714048	502.109497
1.714116	515.841064
1.714183	497.333405
1.714250	488.040314
1.714318	529.387451
1.714385	520.092041
1.714453	510.799835
1.714520	552.121948
1.714587	473.823914
1.714655	597.928284
1.714722	446.070496
1.714789	524.158447
1.714857	519.472107
1.714924	510.190979
1.714992	523.890686
1.715059	560.559448
1.715127	482.366547
1.715194	574.148071
1.715262	532.718689
1.715329	518.853149
1.715397	514.173950
1.715464	559.987000
1.715532	582.838013
1.715599	532.265381
1.715667	509.236206
1.715734	513.736450
1.715802	513.648987
1.715870	508.976227
1.715937	573.073853
1.716005	559.224915
1.716073	549.963684
1.716140	545.287903
1.716208	545.195129
1.716275	540.521667
1.716343	526.690002
1.716411	586.129150
1.716478	462.413849
1.716546	558.464294
1.716614	608.714111
1.716682	512.514160
1.716749	535.303223
1.716817	503.190948
1.716885	576.284363
1.716953	535.030212
1.717021	589.804810
1.717088	511.991547
1.717156	571.322021
1.717224	511.817505
1.717292	507.161499
1.717360	507.075287
1.717427	561.798767
1.717495	474.936127
1.717563	593.569275
1.717631	538.686707
1.717699	579.674500
1.717767	570.448792
1.717835	520.160950
1.717903	542.882751
1.717971	583.841919
1.718039	560.940308
1.718107	528.927063
1.718175	615.457092
1.718243	537.863708
1.718311	587.903748
1.718379	647.039978
1.718447	574.036560
1.718515	619.489807
1.718583	592.058838
1.718651	532.762512
1.718719	587.305115
1.718787	546.237610
1.718855	559.798523
1.718923	532.400879
1.718992	586.906494
1.719060	623.197998
1.719128	573.062988
1.719196	595.702454
1.719264	618.334290
1.719332	654.595825
1.719401	563.584106
1.719469	608.931091
1.719537	572.479919
1.719605	599.639099
1.719674	585.911560
1.719742	608.518066
1.719810	622.036133
1.719878	612.851379
1.719947	599.130859
1.720015	694.329346
1.720083	598.927673
1.720152	612.435852
1.720220	512.544556
1.720288	535.132813
1.720357	616.658691
1.720425	607.487183
1.720493	602.851501
1.720562	580.089600
1.720630	539.210632
1.720699	670.501282
1.720767	575.265137
1.720835	611.398682
1.720904	561.485840
1.720972	579.500122
1.721041	597.508240
1.721109	597.407043
1.721178	651.606384
1.721246	633.398926
1.721315	574.485962
1.721383	628.661621
1.721452	642.121094
1.721520	628.448730
1.721589	578.617371
1.721658	560.440674
1.721726	623.610657
1.721795	614.468750
1.721864	636.951721
1.721932	618.777405
1.722001	618.672668
1.722069	605.022644
1.722138	618.463257
1.722207	604.817871
1.722275	640.817932
1.722344	658.757690
1.722413	613.533447
1.722481	559.303528
1.722550	617.835632
1.722619	617.731079
1.722688	599.593689
1.722756	622.029602
1.722825	603.897583
1.722894	594.783569
1.722963	662.260559
1.723032	603.591187
1.723101	698.065796
1.723169	603.387085
1.723238	675.319092
1.723307	648.196716
1.723376	603.081116
1.723445	575.980042
1.723514	733.350647
1.723583	634.263550
1.723651	665.639282
1.723720	656.533203
1.723789	638.438049
1.723858	669.797119
1.723927	615.749634
1.723996	647.101929
1.724065	620.034607
1.724134	557.038391
1.724203	655.756958
1.724272	723.007080
1.724341	646.555481
1.724410	588.086548
1.724479	673.267822
1.724549	727.006409
1.724618	668.553467
1.724687	717.788513
1.724756	659.356812
1.724825	623.368164
1.724894	605.327271
1.724963	726.270081
1.725032	640.982056
1.725101	596.057495
1.725171	703.497925
1.725240	622.737000
1.725309	653.987427
1.725378	774.799500
1.725447	716.456665
1.725517	658.133423
1.725586	658.022400
1.725655	613.155457
1.725724	617.526855
1.725794	617.422668
1.725863	657.578369
1.725932	675.357666
1.726002	715.490051
1.726071	630.419250
1.726140	768.892334
1.726210	639.145691
1.726279	670.319458
1.726348	705.950745
1.726418	656.691528
1.726487	611.915405
1.726557	652.004272
1.726626	674.219482
1.726696	656.248718
1.726765	651.674561
1.726834	656.027466
1.726904	704.999084
1.726973	629.038696
1.727043	686.919373
1.727112	691.263367
1.727182	695.605835
1.727251	691.030334
1.727321	677.541382
1.727390	713.081238
1.727460	641.664978
1.727530	623.735840
1.727599	699.357361
1.727669	725.962036
1.727738	659.044678
1.727808	712.360718
1.727878	663.274170
1.727947	707.669983
1.728017	729.800842
1.728087	729.677917
1.728156	693.966980
1.728226	684.954590
1.728296	680.392273
1.728365	666.938904
1.728435	724.618225
1.728505	640.045776
1.728575	684.378113
1.728644	724.252319
1.728714	715.245361
1.728784	755.100891
1.728854	723.886658
1.728923	679.362061
1.728993	719.203491
1.729063	719.082397
1.729133	736.713562
1.729203	754.338745
1.729273	740.902161
1.729343	691.983765
1.729412	660.822021
1.729482	762.699768
1.729552	691.634583
1.729622	766.875977
1.729692	691.401917
1.729762	766.618042
1.729832	779.780823
1.729902	753.070679
1.729972	761.802246
1.730042	704.105713
1.730112	726.125305
1.730182	739.283752
1.730252	743.585571
1.730322	690.356201
1.730392	769.883240
1.730462	716.667358
1.730532	747.508789
1.730602	787.184570
1.730672	756.100769
1.730743	804.603577
1.730813	782.367554
1.730883	729.203125
1.730953	808.616638
1.731023	795.226990
1.731093	773.007446
1.731164	764.044678
1.731234	821.320435
1.731304	741.713196
1.731374	741.588562
1.731444	750.290955
1.731515	803.117737
1.731585	758.862915
1.731655	816.081726
1.731725	763.018494
1.731796	806.988098
1.731866	740.717102
1.731936	846.391663
1.732007	766.913635
1.732077	762.378113
1.732147	691.752991
1.732218	757.716797
1.732288	792.826294
1.732358	810.308594
1.732429	761.738342
1.732499	774.817627
1.732570	853.916992
1.732640	800.962891
1.732710	756.826904
1.732781	708.306335
1.732851	818.154480
1.732922	818.017151
1.732992	892.632385
1.733063	791.363892
1.733133	738.482361
1.733204	857.023254
1.733274	760.205872
1.733345	843.555176
1.733416	799.485901
1.733486	830.096069
1.733557	746.522034
1.733627	777.130859
1.733698	807.729309
1.733769	776.870178
1.733839	724.079590
1.733910	750.283936
1.733980	820.348389
1.734051	776.349304
1.734122	828.844177
1.734193	811.166443
1.734263	868.021851
1.734334	775.828857
1.734405	819.523560
1.734475	740.514832
1.734546	810.486877
1.734617	823.491882
1.734688	770.799377
1.734758	823.215881
1.734829	823.077942
1.734900	801.053345
1.734971	735.270020
1.735042	809.536682
1.735113	822.526489
1.735183	844.260742
1.735254	830.998230
1.735325	848.350830
1.735396	870.069763
1.735467	891.781433
1.735538	874.149109
1.735609	795.342468
1.735680	882.594910
1.735751	799.444641
1.735822	877.931519
1.735893	847.214905
1.735964	855.805786
1.736035	812.006226
1.736106	820.600098
1.736177	803.006042
1.736248	811.598511
1.736319	872.540466
1.736390	806.964844
1.736461	793.746094
1.736532	859.020935
1.736603	885.035828
1.736674	858.733398
1.736745	889.097961
1.736817	910.737183
1.736888	806.020020
1.736959	775.392212
1.737030	831.882813
1.737101	831.743591
1.737172	957.869019
1.737244	857.584717
1.737315	944.491150
1.737386	835.539001
1.737457	905.015869
1.737528	887.463257
1.737600	861.217346
1.737671	874.119873
1.737742	913.106873
1.737814	873.827576
1.737885	860.641418
1.737956	882.227295
1.738028	829.937134
1.738099	825.453918
1.738170	864.409790
1.738242	807.805786
1.738313	872.805481
1.738384	955.149780
1.738456	889.877197
1.738527	876.708069
1.738599	959.010376
1.738670	924.140625
1.738742	828.550964
1.738813	863.110474
1.738885	823.937622
1.738956	836.807312
1.739028	919.033752
1.739099	875.536804
1.739171	914.393066
1.739242	849.246948
1.739314	879.430237
1.739385	874.951904
1.739457	866.144348
1.739528	965.589661
1.739600	909.147766
1.739672	973.924255
1.739743	908.844177
1.739815	856.767151
1.739887	843.644897
1.739958	955.971252
1.740030	1007.710938
1.740101	1024.839600
1.740173	912.257568
1.740245	847.263672
1.740317	933.563293
1.740388	937.728821
1.740460	812.274597
1.740532	997.894226
1.740604	950.216858
1.740675	932.784485
1.740747	993.076965
1.740819	919.522156
1.740891	992.745544
1.740963	932.161987
1.741034	1009.673706
1.741106	992.248718
1.741178	897.188293
1.741250	866.849792
1.741322	922.760742
1.741394	995.898071
1.741466	956.937195
1.741538	1004.185486
1.741610	969.545288
1.741681	1038.317505
1.741753	1068.297852
1.741825	1033.664307
1.741897	891.386780
1.741969	947.209595
1.742041	964.270813
1.742113	955.501892
1.742185	976.859314
1.742257	929.367554
1.742329	933.514526
1.742401	997.876831
1.742474	1040.715210
1.742546	980.345154
1.742618	941.490356
1.742690	980.018372
1.742762	1044.319214
1.742834	902.347656
1.742906	1005.305603
1.742978	979.365295
1.743051	1030.739014
1.743123	1000.509094
1.743195	974.582520
1.743267	978.712708
1.743340	1017.176636
1.743412	995.551331
1.743484	1098.356445
1.743556	956.612061
1.743629	935.007568
1.743701	934.851868
1.743773	960.421692
1.743845	964.548645
1.743918	1041.539063
1.743990	1007.081970
1.744062	976.921082
1.744135	993.894531
1.744207	1122.228516
1.744280	1044.954834
1.744352	1057.626465
1.744424	1087.418701
1.744497	1052.993896
1.744569	997.181885
1.744642	971.341675
1.744714	1035.354858
1.744786	1129.290039
1.744859	1060.671631
1.744931	983.523743
1.745004	1026.114868
1.745076	1025.944092
1.745149	1000.129028
1.745221	1042.696045
1.745294	1033.977295
1.745367	1033.805176
1.745439	1067.802979
1.745512	1059.084229
1.745584	1080.257080
1.745657	1024.579346
1.745729	1075.629272
1.745802	973.026550
1.745875	1122.208008
1.745947	1083.625122
1.746020	1032.258545
1.746093	1078.999878
1.746166	1104.405151
1.746238	1014.690002
1.746311	1078.461670
1.746384	1056.972412
1.746456	1056.796753
1.746529	1052.360474
1.746602	1094.784058
1.746675	1005.159912
1.746747	1017.768127
1.746820	1030.372192
1.746893	1140.883667
1.746966	1115.156006
1.747039	1004.324768
1.747112	1033.942139
1.747184	995.482544
1.747257	1173.963745
1.747330	1101.471313
1.747403	1007.742554
1.747476	1143.619019
1.747549	1164.682373
1.747622	1075.239624
1.747695	1172.793823
1.747768	1074.882446
1.747841	1070.456055
1.747914	998.076904
1.747987	1053.114624
1.748060	1116.625610
1.748133	1052.764893
1.748206	1124.743286
1.748279	1069.389648
1.748352	1115.883911
1.748425	1132.667480
1.748498	1123.996338
1.748571	1145.013672
1.748644	1153.303711
1.748717	1059.845825
1.748791	1127.488647
1.748864	1080.683716
1.748937	1110.165283
1.749010	1101.507813
1.749083	1219.929199
1.749156	1207.021240
1.749229	1147.538452
1.749303	1185.451782
1.749376	1159.856689
1.749449	1142.734741
1.749522	1019.827332
1.749596	1163.510254
1.749669	1142.165894
1.749742	1137.746826
1.749816	1065.667847
1.749889	1141.597412
1.749962	1145.635498
1.750035	1145.445435
1.750109	1166.385620
1.750182	1225.346680
1.750256	1060.382813
1.750329	1127.789795
1.750402	1119.156250
1.750476	1173.863525
1.750549	1207.443481
1.750623	1211.464355
1.750696	1177.500000
1.750769	1126.667969
1.750843	1130.700195
1.750916	1122.075928
1.750990	1176.719116
1.751063	1222.910278
1.751137	1151.031494
1.751211	1163.487305
1.751284	1302.383911
1.751358	1120.960205
1.751431	1158.695313
1.751505	1158.503174
1.751578	1204.643677
1.751652	1217.078003
1.751725	1212.665649
1.751799	1174.575073
1.751873	1195.426636
1.751946	1174.185791
1.752020	1123.496948
1.752094	1194.832520
1.752167	1144.156982
1.752241	1261.728760
1.752315	1269.929810
1.752389	1160.405762
1.752462	1269.509033
1.752536	1277.704712
1.752610	1214.458740
1.752684	1273.079834
1.752757	1281.270630
1.752831	1234.856323
1.752905	1154.861328
1.752979	1276.435303
1.753053	1213.252319
1.753127	1334.776245
1.753200	1200.260376
1.753274	1141.317261
1.753348	1145.323608
1.753422	1291.946045
1.753496	1300.119995
1.753570	1232.812866
1.753644	1194.875854
1.753718	1265.939453
1.753792	1223.818359
1.753866	1290.663208
1.753940	1265.310913
1.754014	1269.290527
1.754088	1273.268799
1.754162	1222.805786
1.754236	1088.619385
1.754310	1176.351685
1.754384	1192.899414
1.754458	1255.475830
1.754532	1364.057983
1.754606	1267.610962
1.754680	1271.583984
1.754754	1329.923706
1.754828	1292.070557
1.754902	1312.760620
1.754977	1354.344116
1.755051	1278.891235
1.755125	1341.359985
1.755199	1278.468140
1.755273	1340.916260
1.755347	1278.045166
1.755422	1365.528198
1.755496	1461.332886
1.755570	1348.378418
1.755645	1218.765869
1.755719	1381.317749
1.755793	1343.537109
1.755867	1280.738159
1.755942	1318.066162
1.756016	1301.166626
1.756090	1359.327515
1.756165	1321.581543
1.756239	1367.214722
1.756314	1308.641602
1.756388	1375.096680
1.756462	1366.536743
1.756537	1195.521973
1.756611	1378.579712
1.756685	1328.381348
1.756760	1369.796997
1.756834	1290.476807
1.756909	1390.154907
1.756983	1344.149170
1.757058	1343.927124
1.757132	1331.224731
1.757207	1434.989502
1.757281	1372.371948
1.757356	1305.616821
1.757431	1301.243774
1.757505	1355.065186
1.757580	1379.776978
1.757654	1437.722900
1.757729	1358.548340
1.757804	1420.632324
1.757878	1383.018799
1.757953	1411.857910
1.758028	1390.865601
1.758102	1382.333496
1.758177	1361.352905
1.758252	1327.929810
1.758326	1485.376099
1.758401	1468.537231
1.758476	1418.521973
1.758550	1397.552612
1.758625	1380.736328
1.758700	1305.886353
1.758775	1529.500000
1.758850	1396.629761
1.758924	1388.111938
1.758999	1400.311646
1.759074	1358.657959
1.759149	1304.593262
1.759224	1461.731445
1.759298	1382.826416
1.759373	1382.598145
1.759448	1489.979614
1.759523	1460.766724
1.759598	1497.762817
1.759673	1410.643188
1.759748	1455.907471
1.759823	1459.802612
1.759898	1451.292236
1.759973	1355.969604
1.760048	1384.679443
1.760123	1438.175903
1.760198	1417.278564
1.760273	1470.752075
1.760348	1478.770630
1.760423	1420.707275
1.760498	1486.541382
1.760573	1568.868164
1.760648	1411.748535
1.760723	1531.205566
1.760798	1456.674927
1.760874	1427.553589
1.760949	1443.818848
1.761024	1439.456299
1.761099	1488.704956
1.761174	1389.503662
1.761249	1467.601563
1.761325	1549.795532
1.761400	1483.602173
1.761475	1524.561890
1.761550	1528.430298
1.761626	1507.582886
1.761701	1400.255981
1.761776	1511.203613
1.761851	1358.623901
1.761927	1543.636353
1.762002	1703.893555
1.762077	1448.482300
1.762153	1518.187134
1.762228	1493.255005
1.762303	1558.816528
1.762379	1505.099731
1.762454	1550.079468
1.762529	1541.602173
1.762605	1615.332886
1.762680	1504.107910
1.762756	1594.255981
1.762831	1515.937012
1.762907	1589.623169
1.762982	1552.399414
1.763058	1638.373779
1.763133	1527.254761
1.763209	1428.486816
1.763284	1506.230713
1.763360	1624.984009
1.763435	1595.996582
1.763511	1558.814453
1.763586	1529.847412
1.763662	1541.897827
1.763738	1525.243408
1.763813	1557.787720
1.763889	1508.345947
1.763964	1598.255615
1.764040	1606.187256
1.764116	1745.212036
1.764191	1597.466187
1.764267	1654.538696
1.764343	1580.561401
1.764419	1670.370117
1.764494	1551.387329
1.764570	1559.317383
1.764646	1538.600586
1.764722	1628.356934
1.764797	1587.182129
1.764873	1574.650879
1.764949	1533.498413
1.765025	1508.714111
1.765100	1635.193237
1.765176	1728.932251
1.765252	1728.647705
1.765328	1601.698242
