#Wave		#Intensity
1.699584	315.627960
1.699649	396.926056
1.699714	396.857391
1.699779	387.227539
1.699844	391.940308
1.699908	367.977844
1.699973	344.023651
1.700038	449.064301
1.700103	410.774994
1.700168	324.742645
1.700233	339.010895
1.700298	396.239990
1.700363	372.305725
1.700428	424.736938
1.700493	372.177002
1.700558	386.424683
1.700623	343.429230
1.700688	410.136230
1.700753	362.383331
1.700818	367.088074
1.700883	462.355713
1.700948	438.447174
1.701013	405.017059
1.701078	314.429504
1.701143	409.640381
1.701208	428.619385
1.701273	380.929199
1.701338	380.863403
1.701403	356.997772
1.701468	437.841644
1.701534	380.666107
1.701599	428.175415
1.701664	399.561401
1.701729	389.980682
1.701794	470.749054
1.701859	413.617157
1.701925	413.545776
1.701990	370.701172
1.702055	375.388947
1.702120	441.837311
1.702186	441.761078
1.702251	455.932739
1.702316	455.854095
1.702381	360.822235
1.702447	417.722076
1.702512	422.396057
1.702577	446.049194
1.702643	336.851410
1.702708	369.998291
1.702773	445.818481
1.702839	440.999664
1.702904	464.629181
1.702969	407.665527
1.703035	417.074219
1.703100	402.786316
1.703166	407.454742
1.703231	487.914001
1.703297	516.247192
1.703362	411.979492
1.703427	445.050568
1.703493	359.766113
1.703558	468.561951
1.703624	397.499207
1.703689	454.206543
1.703755	425.745300
1.703820	482.428223
1.703886	458.700745
1.703952	482.262054
1.704017	519.996948
1.704083	387.567352
1.704148	453.659241
1.704214	463.030731
1.704280	425.159119
1.704345	415.639557
1.704411	481.681091
1.704476	486.319733
1.704542	476.794556
1.704608	462.552734
1.704674	420.001099
1.704739	476.548431
1.704805	424.574066
1.704871	448.084381
1.704936	457.439026
1.705002	466.790466
1.705068	391.282257
1.705134	372.361206
1.705199	490.112732
1.705265	367.521332
1.705331	452.256165
1.705397	475.729340
1.705463	419.134949
1.705528	400.228607
1.705594	418.990845
1.705660	437.746613
1.705726	456.495941
1.705792	447.006805
1.705858	555.134094
1.705924	413.927155
1.705989	413.856018
1.706056	404.380707
1.706121	451.324127
1.706187	441.845612
1.706253	465.268097
1.706319	479.284790
1.706385	507.390839
1.706451	408.661285
1.706517	460.252045
1.706583	446.086060
1.706649	436.619781
1.706715	478.791077
1.706781	431.776611
1.706847	436.394897
1.706913	455.086426
1.706980	440.935883
1.707046	483.070190
1.707112	492.365692
1.707178	468.839203
1.707244	478.133911
1.707310	454.617950
1.707376	463.911896
1.707443	463.832275
1.707509	571.493225
1.707575	416.837463
1.707641	468.276337
1.707707	421.376404
1.707773	402.579498
1.707840	463.355042
1.707906	486.673340
1.707972	524.019836
1.708038	514.574097
1.708105	463.037292
1.708171	453.605194
1.708237	490.931763
1.708303	490.847595
1.708370	453.371948
1.708436	387.870300
1.708503	499.939880
1.708569	476.496521
1.708635	532.463623
1.708702	466.993347
1.708768	494.928101
1.708834	513.516663
1.708901	429.413055
1.708967	555.341309
1.709034	475.925262
1.709100	471.178619
1.709167	494.419586
1.709233	438.372437
1.709299	466.273804
1.709366	484.841705
1.709432	550.014648
1.709499	470.694641
1.709566	479.933136
1.709632	498.485962
1.709699	517.032410
1.709765	502.972443
1.709832	549.449890
1.709898	544.700256
1.709965	572.535645
1.710032	535.205933
1.710098	507.195313
1.710165	525.718018
1.710231	469.809143
1.710298	502.284210
1.710365	478.948364
1.710431	497.463196
1.710498	497.378082
1.710565	520.531006
1.710631	455.386719
1.710698	613.273132
1.710765	534.199585
1.710832	473.730804
1.710898	547.947815
1.710965	492.140137
1.711032	524.550232
1.711099	510.536835
1.711165	556.854065
1.711232	561.398499
1.711299	510.275055
1.711366	542.654358
1.711433	551.836182
1.711500	505.376984
1.711566	542.376160
1.711633	495.934479
1.711700	500.483856
1.711767	523.564941
1.711834	560.535706
1.711901	523.386047
1.711968	560.344238
1.712035	532.467590
1.712102	620.334534
1.712169	583.200012
1.712236	615.494873
1.712303	522.849976
1.712370	504.255859
1.712437	629.055847
1.712504	550.329895
1.712571	545.612122
1.712638	600.995483
1.712705	605.515137
1.712772	563.818604
1.712839	623.791199
1.712906	586.725647
1.712973	577.387329
1.713040	531.105652
1.713107	660.305664
1.713175	586.325256
1.713242	567.761414
1.713309	581.510071
1.713376	479.894684
1.713443	558.243774
1.713511	571.986938
1.713578	544.217285
1.713645	516.457153
1.713712	599.356995
1.713779	502.452087
1.713847	571.499390
1.713914	589.834290
1.713981	548.268066
1.714048	548.174561
1.714116	515.841064
1.714183	547.987732
1.714250	524.873535
1.714318	478.750397
1.714385	607.541199
1.714453	575.225037
1.714520	575.127014
1.714587	588.829712
1.714655	597.928284
1.714722	510.451782
1.714789	547.147888
1.714857	643.593750
1.714924	551.557800
1.714992	565.250488
1.715059	569.748962
1.715127	670.719177
1.715194	633.859497
1.715262	597.012329
1.715329	633.643616
1.715397	596.809021
1.715464	601.297485
1.715532	633.320068
1.715599	568.973328
1.715667	610.165894
1.715734	628.409790
1.715802	600.785889
1.715870	609.854370
1.715937	595.996826
1.716005	600.479248
1.716073	627.875244
1.716140	659.844177
1.716208	591.009827
1.716275	609.232056
1.716343	577.069031
1.716411	613.603943
1.716478	631.812988
1.716546	613.395203
1.716614	613.290894
1.716682	649.794739
1.716749	544.453735
1.716817	635.850403
1.716885	576.284363
1.716953	576.186401
1.717021	667.531067
1.717088	658.274841
1.717156	598.745483
1.717224	607.783264
1.717292	584.834900
1.717360	616.713196
1.717427	602.906006
1.717495	634.770386
1.717563	611.832947
1.717631	643.684937
1.717699	661.833069
1.717767	579.575989
1.717835	542.975037
1.717903	588.503174
1.717971	634.015869
1.718039	624.787170
1.718107	642.919922
1.718175	665.605469
1.718243	738.423096
1.718311	656.264648
1.718379	688.049500
1.718447	669.709351
1.718515	628.599976
1.718583	578.395935
1.718651	642.047119
1.718719	619.174377
1.718787	687.348999
1.718855	664.476318
1.718923	618.859192
1.718992	677.899780
1.719060	664.138062
1.719128	673.121582
1.719196	541.134277
1.719264	609.241150
1.719332	681.870605
1.719401	654.484741
1.719469	618.019653
1.719537	708.784607
1.719605	745.006165
1.719674	635.872986
1.719742	576.729858
1.719810	731.005981
1.719878	671.866699
1.719947	639.980652
1.720015	653.486450
1.720083	617.077026
1.720152	644.191772
1.720220	730.262634
1.720288	734.673828
1.720357	621.192932
1.720425	680.023010
1.720493	688.973145
1.720562	706.984192
1.720630	670.614929
1.720699	702.214172
1.720767	702.095215
1.720835	656.687439
1.720904	729.026001
1.720972	674.574341
1.721041	724.252441
1.721109	674.345825
1.721178	710.431946
1.721246	696.738770
1.721315	655.909180
1.721383	768.866760
1.721452	759.692566
1.721520	691.745728
1.721589	556.015137
1.721658	686.991821
1.721726	691.394409
1.721795	691.277405
1.721864	596.295227
1.721932	790.409058
1.722001	754.148438
1.722069	636.628296
1.722138	672.635193
1.722207	717.657043
1.722275	649.843567
1.722344	717.414185
1.722413	721.804077
1.722481	667.555786
1.722550	748.618347
1.722619	753.000671
1.722688	712.299255
1.722756	766.268311
1.722825	721.071716
1.722894	729.961609
1.722963	752.364075
1.723032	743.227966
1.723101	747.605957
1.723169	788.005554
1.723238	765.361633
1.723307	765.232239
1.723376	715.596191
1.723445	674.976624
1.723514	661.365295
1.723583	674.748474
1.723651	796.068604
1.723720	719.488403
1.723789	827.271851
1.723858	786.674500
1.723927	719.123718
1.723996	683.052063
1.724065	736.852722
1.724134	732.235962
1.724203	794.993042
1.724272	826.293823
1.724341	745.334839
1.724410	745.208923
1.724479	763.036865
1.724549	677.641785
1.724618	776.239929
1.724687	749.191772
1.724756	731.123535
1.724825	811.724060
1.724894	865.393860
1.724963	735.236389
1.725032	735.112244
1.725101	806.694336
1.725171	743.825867
1.725240	654.097839
1.725309	774.930298
1.725378	770.320923
1.725447	837.358704
1.725517	720.812805
1.725586	769.930969
1.725655	845.885986
1.725724	702.548645
1.725794	765.067200
1.725863	876.771179
1.725932	863.205505
1.726002	746.792786
1.726071	737.724670
1.726140	768.892334
1.726210	804.519043
1.726279	768.632996
1.726348	826.587952
1.726418	746.037292
1.726487	768.244202
1.726557	808.306702
1.726626	817.100464
1.726696	825.891235
1.726765	798.970825
1.726834	861.314941
1.726904	821.011597
1.726973	829.795715
1.727043	847.497925
1.727112	820.596497
1.727182	744.654968
1.727251	815.861633
1.727321	766.691528
1.727390	802.216431
1.727460	842.185303
1.727530	810.856628
1.727599	708.266357
1.727669	779.407104
1.727738	788.181824
1.727808	814.762573
1.727878	747.852722
1.727947	952.461487
1.728017	863.300964
1.728087	858.706299
1.728156	831.870667
1.728226	809.491821
1.728296	787.120422
1.728365	844.789246
1.728435	809.082947
1.728505	880.062927
1.728575	822.142578
1.728644	786.458069
1.728714	839.635864
1.728784	821.727417
1.728854	852.676270
1.728923	892.495239
1.728993	763.598755
1.729063	825.613159
1.729133	838.788330
1.729203	834.209900
1.729273	905.054138
1.729343	802.878601
1.729412	829.353821
1.729482	891.294495
1.729552	798.039917
1.729622	811.204102
1.729692	859.820374
1.729762	868.538330
1.729832	806.364258
1.729902	899.255005
1.729972	850.383850
1.730042	845.812561
1.730112	850.097900
1.730182	867.662354
1.730252	929.481934
1.730322	823.117004
1.730392	814.129395
1.730462	813.992554
1.730532	889.048889
1.730602	884.477051
1.730672	955.074646
1.730743	844.391663
1.730813	875.190857
1.730883	857.366089
1.730953	852.803345
1.731023	830.570435
1.731093	927.608948
1.731164	949.535278
1.731234	887.555969
1.731304	856.502136
1.731374	825.458679
1.731444	931.243469
1.731515	970.801636
1.731585	970.638611
1.731655	895.484253
1.731725	912.975891
1.731796	908.412842
1.731866	899.442200
1.731936	912.516052
1.732007	921.177917
1.732077	859.327881
1.732147	885.620056
1.732218	964.767273
1.732288	982.223694
1.732358	916.001038
1.732429	955.475281
1.732499	854.060303
1.732570	893.531677
1.732640	924.187988
1.732710	906.432251
1.732781	963.472595
1.732851	923.722778
1.732922	888.384216
1.732992	949.796021
1.733063	962.826050
1.733133	1011.017517
1.733204	949.318054
1.733274	940.370300
1.733345	997.328247
1.733416	931.269287
1.733486	988.209656
1.733557	904.609070
1.733627	996.659302
1.733698	908.695496
1.733769	926.099487
1.733839	987.381287
1.733910	925.788940
1.733980	890.538635
1.734051	960.567749
1.734122	916.552551
1.734193	916.398865
1.734263	995.156311
1.734334	1038.821655
1.734405	968.527893
1.734475	946.456787
1.734546	981.346252
1.734617	950.519836
1.734688	932.842407
1.734758	1011.504639
1.734829	971.932434
1.734900	971.769592
1.734971	980.359985
1.735042	1002.075134
1.735113	1032.533203
1.735183	923.000061
1.735254	1010.318909
1.735325	892.080261
1.735396	909.419678
1.735467	1049.154663
1.735538	979.046997
1.735609	926.442871
1.735680	987.457642
1.735751	1039.714966
1.735822	1013.333923
1.735893	982.594604
1.735964	1004.261902
1.736035	1034.653076
1.736106	990.830994
1.736177	986.300903
1.736248	1077.767944
1.736319	999.058838
1.736390	1125.388794
1.736461	1007.446960
1.736532	1085.767578
1.736603	911.194519
1.736674	1011.300293
1.736745	984.981079
1.736817	1041.464966
1.736888	1028.220093
1.736959	1006.267456
1.737030	1023.520691
1.737101	971.093323
1.737172	1044.947998
1.737244	1127.484497
1.737315	1057.656006
1.737386	970.443726
1.737457	1057.302124
1.737528	1070.176270
1.737600	1039.550171
1.737671	1048.074097
1.737742	1134.861450
1.737814	1104.239868
1.737885	1064.935181
1.737956	1142.984131
1.738028	1086.305176
1.738099	1033.989624
1.738170	1007.754150
1.738242	1055.359131
1.738313	1120.317505
1.738384	1050.664795
1.738456	1089.557007
1.738527	1154.476929
1.738599	1132.586914
1.738670	980.543579
1.738742	1171.250122
1.738813	1119.007568
1.738885	1045.099854
1.738956	1118.633667
1.739028	1036.080444
1.739099	1131.262939
1.739171	1170.076416
1.739242	1135.217896
1.739314	992.066650
1.739385	1208.473145
1.739457	1177.956299
1.739528	1117.139526
1.739600	1030.367554
1.739672	1116.766479
1.739743	1151.202637
1.739815	1133.701904
1.739887	1146.491821
1.739958	1159.277344
1.740030	1050.960327
1.740101	1119.972290
1.740173	1089.520874
1.740245	1076.370728
1.740317	972.461731
1.740388	1076.011353
1.740460	1183.847046
1.740532	1123.171021
1.740604	1166.175171
1.740675	1118.477661
1.740747	1096.702393
1.740819	1109.470459
1.740891	1178.345825
1.740963	1152.255859
1.741034	1143.433838
1.741106	1164.813721
1.741178	1078.351318
1.741250	1181.675903
1.741322	1172.854858
1.741394	1129.546753
1.741466	1176.774048
1.741538	1198.126831
1.741610	1137.599731
1.741681	1167.568604
1.741753	1158.758667
1.741825	1180.100098
1.741897	1162.678467
1.741969	1257.205444
1.742041	1201.033691
1.742113	1183.617188
1.742185	1161.903198
1.742257	1191.827881
1.742329	1114.194824
1.742401	1212.936523
1.742474	1303.044312
1.742546	1199.632935
1.742618	1233.825317
1.742690	1237.917969
1.742762	1224.818848
1.742834	1216.020874
1.742906	1250.187744
1.742978	1297.229492
1.743051	1339.960815
1.743123	1236.680786
1.743195	1253.647949
1.743267	1189.050171
1.743340	1180.268311
1.743412	1244.439209
1.743484	1261.393677
1.743556	1295.501465
1.743629	1213.794189
1.743701	1226.457031
1.743773	1161.938721
1.743845	1200.327271
1.743918	1178.696411
1.743990	1174.214722
1.744062	1225.436157
1.744135	1336.616821
1.744207	1306.411011
1.744280	1237.671875
1.744352	1156.109985
1.744424	1344.289185
1.744497	1339.784912
1.744569	1279.645386
1.744642	1240.921021
1.744714	1334.837646
1.744786	1274.728882
1.744859	1236.024658
1.744931	1317.066528
1.745004	1440.836182
1.745076	1342.276855
1.745149	1290.764771
1.745221	1286.276611
1.745294	1337.334229
1.745367	1302.936401
1.745439	1324.075684
1.745512	1276.879883
1.745584	1319.365356
1.745657	1293.531372
1.745729	1314.658081
1.745802	1288.833374
1.745875	1365.424072
1.745947	1318.268433
1.746020	1300.987061
1.746093	1369.007813
1.746166	1283.497925
1.746238	1317.391724
1.746311	1278.808350
1.746384	1346.787476
1.746456	1342.302246
1.746529	1363.381958
1.746602	1375.934814
1.746675	1384.224487
1.746747	1430.837158
1.746820	1302.867310
1.746893	1332.449951
1.746966	1349.253662
1.747039	1357.540649
1.747112	1259.452148
1.747184	1335.818481
1.747257	1335.596436
1.747330	1454.452515
1.747403	1407.437988
1.747476	1449.717773
1.747549	1385.716919
1.747622	1385.486694
1.747695	1474.490845
1.747768	1559.216797
1.747841	1427.274658
1.747914	1367.577637
1.747987	1371.596924
1.748060	1371.369141
1.748133	1341.426147
1.748206	1404.868042
1.748279	1425.852783
1.748352	1319.543457
1.748425	1357.504028
1.748498	1268.207275
1.748571	1433.387451
1.748644	1484.030518
1.748717	1394.757080
1.748791	1339.422607
1.748864	1364.628174
1.748937	1427.960693
1.749010	1372.648193
1.749083	1363.948608
1.749156	1456.895752
1.749229	1435.481689
1.749303	1337.866943
1.749376	1401.140747
1.749449	1485.555176
1.749522	1426.065552
1.749596	1434.290771
1.749669	1417.131836
1.749742	1433.814819
1.749816	1471.636475
1.749889	1484.076660
1.749962	1365.462280
1.750035	1415.956543
1.750109	1496.016235
1.750182	1415.486694
1.750256	1440.599731
1.750329	1491.047974
1.750402	1465.461182
1.750476	1435.660400
1.750549	1435.422363
1.750623	1447.847656
1.750696	1502.473145
1.750769	1481.125244
1.750843	1447.127441
1.750916	1493.289063
1.750990	1509.911987
1.751063	1505.444702
1.751137	1619.033325
1.751211	1618.764893
1.751284	1500.481201
1.751358	1555.016235
1.751431	1542.118164
1.751505	1533.437012
1.751578	1520.546753
1.751652	1591.887451
1.751725	1482.146851
1.751799	1528.210571
1.751873	1490.074097
1.751946	1544.538330
1.752020	1506.411743
1.752094	1518.783569
1.752167	1590.041626
1.752241	1518.280273
1.752315	1471.772949
1.752389	1559.820801
1.752462	1635.228516
1.752536	1538.289185
1.752610	1580.057129
1.752684	1554.585815
1.752757	1554.328369
1.752831	1604.473145
1.752905	1633.603882
1.752979	1549.357300
1.753053	1616.270386
1.753127	1569.831177
1.753200	1636.718628
1.753274	1623.859497
1.753348	1585.832764
1.753422	1686.241211
1.753496	1606.277222
1.753570	1597.624878
1.753644	1693.788940
1.753718	1676.741089
1.753792	1538.155273
1.753866	1651.043091
1.753940	1629.820923
1.754014	1658.874756
1.754088	1574.832397
1.754162	1620.636353
1.754236	1666.425171
1.754310	1594.982178
1.754384	1611.460571
1.754458	1569.344727
1.754532	1744.822510
1.754606	1694.331421
1.754680	1547.651611
1.754754	1589.217041
1.754828	1689.309082
1.754902	1630.498779
1.754977	1718.010620
1.755051	1638.318115
1.755125	1688.191406
1.755199	1650.310181
1.755273	1658.391724
1.755347	1666.470703
1.755422	1653.667236
1.755496	1640.868042
1.755570	1703.214844
1.755645	1769.714844
1.755719	1706.824707
1.755793	1552.160889
1.755867	1810.554810
1.755942	1701.807007
1.756016	1672.332764
1.756090	1701.244263
1.756165	1717.639038
1.756239	1663.166748
1.756314	1687.897583
1.756388	1779.291748
1.756462	1674.840820
1.756537	1728.716553
1.756611	1674.287109
1.756685	1823.921753
1.756760	1682.060791
1.756834	1715.085327
1.756909	1752.261230
1.756983	1639.612305
1.757058	1643.502197
1.757132	1738.912354
1.757207	1618.002686
1.757281	1792.400879
1.757356	1733.892456
1.757431	1746.078003
1.757505	1745.789551
1.757580	1757.968994
1.757654	1795.075928
1.757729	1740.769775
1.757804	1769.559570
1.757878	1823.258911
1.757953	1669.314453
1.758028	1801.897461
1.758102	1743.483765
1.758177	1801.302368
1.758252	1784.405762
1.758326	1672.085449
1.758401	1858.487793
1.758476	1841.589966
1.758550	1832.991821
1.758625	1845.128174
1.758700	1786.784180
1.758775	1844.518921
1.758850	1885.657471
1.758924	1814.904663
1.758999	1856.034302
1.759074	1781.167480
1.759149	1905.120361
1.759224	1850.974487
1.759298	1912.771851
1.759373	1895.898071
1.759448	1866.613403
1.759523	1808.371216
1.759598	1948.746582
1.759673	1902.920410
1.759748	1993.600586
1.759823	1823.719482
1.759898	1918.517456
1.759973	1971.943604
1.760048	1938.551270
1.760123	1901.037109
1.760198	1979.231689
1.760273	1941.723145
1.760348	1999.231934
1.760423	1957.602417
1.760498	1866.435303
1.760573	1861.998779
1.760648	1907.098877
1.760723	1902.656982
1.760798	2017.886841
1.760874	1939.162354
1.760949	1971.844116
1.761024	2021.013062
1.761099	1913.460083
1.761174	1929.637207
1.761249	1954.053833
1.761325	1875.417480
1.761400	1850.381592
1.761475	2080.821045
1.761550	2010.442017
1.761626	2059.539551
1.761701	1976.831909
1.761776	2034.154175
1.761851	1947.360962
1.761927	2033.483521
1.762002	2033.148438
1.762077	2032.813232
1.762153	1995.449219
1.762228	1999.234009
1.762303	2003.017456
1.762379	2068.484131
1.762454	2043.473511
1.762529	2030.803955
1.762605	2042.800049
1.762680	1976.710083
1.762756	2009.255615
1.762831	1955.517578
1.762907	2004.486084
1.762982	1995.942017
1.763058	2073.631104
1.763133	2110.239014
1.763209	2019.584839
1.763284	2006.939575
1.763360	1990.195068
1.763435	1993.970093
1.763511	2079.786621
1.763586	2001.516113
1.763662	2083.202393
1.763738	1976.256226
1.763813	1971.831299
1.763889	1979.704102
1.763964	2057.241943
1.764040	2118.364258
1.764116	2109.822021
1.764191	2039.841431
1.764267	2064.077881
1.764343	2092.401123
1.764419	2132.997070
1.764494	2083.525391
1.764570	2074.997070
1.764646	2025.551270
1.764722	2082.496582
1.764797	2180.330078
1.764873	2134.981201
1.764949	2150.987061
