#Wave		#Intensity
1.699584	306.063477
1.699649	358.668121
1.699714	329.917572
1.699779	348.982849
1.699844	320.243896
1.699908	391.872498
1.699973	324.911224
1.700038	334.409576
1.700103	353.457550
1.700168	315.191406
1.700233	386.758911
1.700298	281.664581
1.700363	315.027924
1.700428	310.201111
1.700493	400.806000
1.700558	343.488617
1.700623	395.897583
1.700688	357.676941
1.700753	386.224335
1.700818	414.761841
1.700883	352.724976
1.700948	343.132568
1.701013	400.252167
1.701078	362.070343
1.701143	319.138458
1.701208	347.657928
1.701273	361.882721
1.701338	428.471313
1.701403	342.717865
1.701468	337.899536
1.701534	356.874481
1.701599	394.872894
1.701664	309.184418
1.701729	375.713104
1.701794	342.362946
1.701859	351.812286
1.701925	342.244781
1.701990	403.969238
1.702055	356.381927
1.702120	327.814789
1.702186	408.510254
1.702251	337.200256
1.702316	327.645111
1.702381	365.569885
1.702447	431.962616
1.702512	393.919922
1.702577	441.304016
1.702643	408.017181
1.702708	398.459686
1.702773	393.648224
1.702839	398.322266
1.702904	398.253601
1.702969	327.080475
1.703035	322.284607
1.703100	412.263641
1.703166	416.930420
1.703231	341.066101
1.703297	336.271088
1.703362	326.742371
1.703427	421.377655
1.703493	426.038818
1.703558	407.033600
1.703624	383.302826
1.703689	411.624695
1.703755	473.050323
1.703820	368.915710
1.703886	420.869751
1.703952	340.420258
1.704017	420.724823
1.704083	392.293762
1.704148	453.659241
1.704214	354.360260
1.704280	472.399017
1.704345	420.362732
1.704411	467.514008
1.704476	462.711975
1.704542	396.542023
1.704608	377.594055
1.704674	344.495270
1.704739	405.773926
1.704805	410.421600
1.704871	410.350983
1.704936	485.734222
1.705002	386.634521
1.705068	428.996216
1.705134	400.641815
1.705199	419.423401
1.705265	428.774872
1.705331	423.990143
1.705397	400.366272
1.705463	452.100616
1.705528	461.440033
1.705594	428.406372
1.705660	409.504913
1.705726	484.732819
1.705792	399.953461
1.705858	428.111877
1.705924	442.149445
1.705989	390.341461
1.706056	437.295410
1.706121	418.415100
1.706187	404.241730
1.706253	460.568420
1.706319	455.790436
1.706385	366.448914
1.706451	427.450317
1.706517	417.984009
1.706583	427.303497
1.706649	399.061096
1.706715	431.850769
1.706781	370.764709
1.706847	375.393463
1.706913	365.945801
1.706980	417.481842
1.707046	393.960175
1.707112	440.784515
1.707178	356.317810
1.707244	421.882874
1.707310	417.123688
1.707376	440.481995
1.707443	468.517456
1.707509	388.802765
1.707575	407.470337
1.707641	398.034882
1.707707	435.422302
1.707773	468.115692
1.707840	439.953278
1.707906	416.480072
1.707972	495.947357
1.708038	453.760803
1.708105	416.265839
1.708171	416.194458
1.708237	462.878510
1.708303	434.750702
1.708370	434.676178
1.708436	481.333038
1.708503	401.820831
1.708569	448.467316
1.708635	448.390442
1.708702	513.692688
1.708768	480.920715
1.708834	480.838318
1.708901	434.080597
1.708967	452.673157
1.709034	471.259338
1.709100	489.839142
1.709167	452.440552
1.709233	424.381836
1.709299	414.983673
1.709366	461.532013
1.709432	554.675781
1.709499	484.675659
1.709566	475.273590
1.709632	470.533478
1.709699	470.452911
1.709765	475.029510
1.709832	498.229980
1.709898	442.278015
1.709965	502.714203
1.710032	386.279053
1.710098	432.744629
1.710165	502.456146
1.710231	469.809143
1.710298	497.633453
1.710365	464.998413
1.710431	446.322113
1.710498	515.971680
1.710565	534.473816
1.710631	473.973938
1.710698	408.848755
1.710765	404.133606
1.710832	459.797546
1.710898	464.362549
1.710965	538.568420
1.711032	515.266174
1.711099	426.994446
1.711165	482.606842
1.711232	431.488129
1.711299	487.080750
1.711366	486.997498
1.711433	426.629639
1.711500	454.375641
1.711566	477.476471
1.711633	519.109009
1.711700	505.117950
1.711767	537.464905
1.711834	481.782745
1.711901	449.278290
1.711968	467.725342
1.712035	564.878662
1.712102	462.936218
1.712169	583.200012
1.712236	546.078186
1.712303	467.326080
1.712370	508.882080
1.712437	536.547668
1.712504	434.714386
1.712571	508.621460
1.712638	545.518982
1.712705	476.092072
1.712772	392.824463
1.712839	586.825745
1.712906	434.269348
1.712973	443.433441
1.713040	577.288757
1.713107	489.457336
1.713175	521.690979
1.713242	480.058441
1.713309	443.055267
1.713376	526.038391
1.713443	475.199219
1.713511	507.407776
1.713578	553.441345
1.713645	465.733673
1.713712	507.148193
1.713779	460.965210
1.713847	603.761475
1.713914	465.416107
1.713981	446.907562
1.714048	474.470428
1.714116	529.658264
1.714183	492.728455
1.714250	529.477722
1.714318	501.767242
1.714385	561.515320
1.714453	607.437622
1.714520	570.526001
1.714587	561.228333
1.714655	505.939331
1.714722	556.438416
1.714789	482.777557
1.714857	464.306915
1.714924	496.402039
1.714992	496.317474
1.715059	565.154175
1.715127	578.839844
1.715194	496.063934
1.715262	509.756683
1.715329	541.811218
1.715397	486.628906
1.715464	486.546051
1.715532	468.106140
1.715599	536.853882
1.715667	513.823914
1.715734	532.084167
1.715802	531.993591
1.715870	527.317688
1.715937	490.551239
1.716005	577.560181
1.716073	508.716431
1.716140	568.199158
1.716208	462.728638
1.716275	558.844421
1.716343	586.228821
1.716411	654.816162
1.716478	553.980957
1.716546	544.731567
1.716614	540.062134
1.716682	549.122314
1.716749	530.727966
1.716817	562.658997
1.716885	530.547485
1.716953	571.613464
1.717021	566.944153
1.717088	516.562927
1.717156	612.457214
1.717224	566.655090
1.717292	593.972900
1.717360	621.281433
1.717427	456.746948
1.717495	470.369415
1.717563	552.476013
1.717631	598.033569
1.717699	556.852661
1.717767	602.393921
1.717835	556.663452
1.717903	629.561523
1.717971	597.525757
1.718039	592.863770
1.718107	588.203369
1.718175	569.867676
1.718243	556.096436
1.718311	560.559387
1.718379	647.039978
1.718447	555.813171
1.718515	528.388367
1.718583	564.733093
1.718651	578.297791
1.718719	614.621643
1.718787	587.205444
1.718855	614.413025
1.718923	605.207886
1.718992	582.356812
1.719060	518.573547
1.719128	550.322388
1.719196	595.702454
1.719264	586.508240
1.719332	563.679749
1.719401	577.219177
1.719469	486.236023
1.719537	558.849426
1.719605	676.865356
1.719674	608.621338
1.719742	617.600464
1.719810	603.874512
1.719878	653.708130
1.719947	553.742126
1.720015	553.648254
1.720083	521.793091
1.720152	576.143311
1.720220	562.438293
1.720288	544.202881
1.720357	607.590210
1.720425	639.221619
1.720493	630.047852
1.720562	661.664673
1.720630	629.834290
1.720699	520.997620
1.720767	611.502258
1.720835	593.283142
1.720904	633.935669
1.720972	615.718872
1.721041	574.875366
1.721109	629.087708
1.721178	610.880981
1.721246	628.874634
1.721315	592.580017
1.721383	687.457336
1.721452	596.901306
1.721520	610.363892
1.721589	592.178711
1.721658	668.913086
1.721726	564.864746
1.721795	623.505066
1.721864	609.847351
1.721932	677.493469
1.722001	550.934753
1.722069	614.052856
1.722138	645.549255
1.722207	604.817871
1.722275	609.228333
1.722344	717.414185
1.722413	609.022156
1.722481	654.024231
1.722550	608.816101
1.722619	626.749084
1.722688	581.560791
1.722756	640.059448
1.722825	694.031555
1.722894	675.890381
1.722963	653.250244
1.723032	662.148560
1.723101	747.605957
1.723169	643.913086
1.723238	526.748901
1.723307	720.218567
1.723376	697.593811
1.723445	638.977905
1.723514	683.860718
1.723583	643.260193
1.723651	679.131958
1.723720	589.081116
1.723789	660.918274
1.723858	575.396179
1.723927	669.683960
1.723996	692.039612
1.724065	669.457642
1.724134	642.391052
1.724203	718.637817
1.724272	700.553467
1.724341	655.535461
1.724410	624.000244
1.724479	637.360168
1.724549	695.592529
1.724618	610.223267
1.724687	699.843811
1.724756	645.900574
1.724825	690.638123
1.724894	659.134155
1.724963	694.888062
1.725032	663.393982
1.725101	681.208557
1.725171	694.536194
1.725240	748.180420
1.725309	649.508057
1.725378	627.005371
1.725447	761.235168
1.725517	676.041809
1.725586	675.927734
1.725655	716.093994
1.725724	689.124146
1.725794	612.948547
1.725863	706.784912
1.725932	809.534729
1.726002	634.997437
1.726071	715.369385
1.726140	666.075378
1.726210	697.249878
1.726279	665.850708
1.726348	701.482727
1.726418	737.102722
1.726487	692.313110
1.726557	674.333191
1.726626	683.149536
1.726696	656.248718
1.726765	705.236816
1.726834	727.431824
1.726904	691.613037
1.726973	767.337952
1.727043	713.682434
1.727112	798.297668
1.727182	722.359924
1.727251	717.779907
1.727321	793.436584
1.727390	699.710999
1.727460	699.593079
1.727530	681.654175
1.727599	752.811401
1.727669	659.155701
1.727738	690.215698
1.727808	703.456177
1.727878	730.046753
1.727947	707.669983
1.728017	712.000793
1.728087	702.982361
1.728156	756.246033
1.728226	765.014221
1.728296	836.037537
1.728365	724.740295
1.728435	724.618225
1.728505	724.496216
1.728575	759.926392
1.728644	822.004150
1.728714	817.423279
1.728784	750.659119
1.728854	794.942993
1.728923	785.928650
1.728993	763.598755
1.729063	661.378296
1.729133	727.837463
1.729203	767.650574
1.729273	771.957947
1.729343	691.983765
1.729412	820.483704
1.729482	798.174194
1.729552	744.837280
1.729622	802.338501
1.729692	749.018738
1.729762	793.205933
1.729832	877.253418
1.729902	735.351379
1.729972	801.663940
1.730042	859.097534
1.730112	730.552856
1.730182	814.540161
1.730252	761.289978
1.730322	734.609802
1.730392	809.704773
1.730462	840.535767
1.730532	712.123718
1.730602	760.650269
1.730672	782.630615
1.730743	809.024475
1.730813	777.947388
1.730883	830.849609
1.730953	843.966003
1.731023	808.480774
1.731093	799.510559
1.731164	887.705078
1.731234	794.826233
1.731304	693.148621
1.731374	798.973389
1.731444	794.425720
1.731515	794.292236
1.731585	794.158813
1.731655	824.904236
1.731725	771.839539
1.731796	851.085815
1.731866	771.580322
1.731936	811.125366
1.732007	788.951416
1.732077	806.446167
1.732147	744.625793
1.732218	828.202087
1.732288	784.017090
1.732358	792.693176
1.732429	805.769470
1.732499	889.279297
1.732570	840.712097
1.732640	840.570984
1.732710	827.229431
1.732781	813.892334
1.732851	809.357117
1.732922	787.231567
1.732992	857.454773
1.733063	844.121460
1.733133	848.375610
1.733204	791.098389
1.733274	865.667969
1.733345	808.407043
1.733416	825.842590
1.733486	834.488159
1.733557	878.261230
1.733627	794.693115
1.733698	864.797180
1.733769	825.150269
1.733839	846.953735
1.733910	868.749817
1.733980	872.991028
1.734051	907.933899
1.734122	842.000427
1.734193	876.936707
1.734263	863.637878
1.734334	885.409180
1.734405	915.938110
1.734475	863.203674
1.734546	867.440002
1.734617	792.829956
1.734688	972.258301
1.734758	862.625183
1.734829	805.565674
1.734900	879.845459
1.734971	765.906250
1.735042	971.444031
1.735113	861.902710
1.735183	879.255981
1.735254	844.119263
1.735325	918.317932
1.735396	835.092102
1.735467	843.695190
1.735538	843.553894
1.735609	817.192505
1.735680	935.026306
1.735751	895.552734
1.735822	864.828064
1.735893	912.721252
1.735964	995.529175
1.736035	894.953125
1.736106	986.466064
1.736177	955.751770
1.736248	933.774658
1.736319	868.177795
1.736390	824.412781
1.736461	898.415894
1.736532	933.149597
1.736603	898.115173
1.736674	924.119202
1.736745	897.814636
1.736817	923.809937
1.736888	936.726013
1.736959	1010.623596
1.737030	988.677429
1.737101	927.546570
1.737172	975.284851
1.737244	909.823364
1.737315	905.318665
1.737386	905.167236
1.737457	952.877258
1.737528	952.717896
1.737600	904.713196
1.737671	943.701599
1.737742	913.106873
1.737814	908.606812
1.737885	921.494873
1.737956	973.492188
1.738028	999.400757
1.738099	968.822205
1.738170	929.566345
1.738242	851.236206
1.738313	981.363403
1.738384	881.342773
1.738456	954.990173
1.738527	963.510803
1.738599	963.349792
1.738670	980.543579
1.738742	1006.407471
1.738813	962.866943
1.738885	910.667908
1.738956	1027.582031
1.739028	940.709045
1.739099	988.229614
1.739171	1018.399841
1.739242	931.571899
1.739314	1018.059631
1.739385	1035.215332
1.739457	983.073792
1.739528	1056.519653
1.739600	1073.660278
1.739672	956.610046
1.739743	1043.006836
1.739815	982.253235
1.739887	1021.026672
1.739958	1085.741089
1.740030	1081.234863
1.740101	1024.839600
1.740173	1033.315430
1.740245	1063.402344
1.740317	989.750000
1.740388	894.515503
1.740460	959.175293
1.740532	933.095886
1.740604	1075.472656
1.740675	1049.382568
1.740747	1053.525146
1.740819	1010.179260
1.740891	1053.173584
1.740963	1104.784668
1.741034	1134.804199
1.741106	1022.447632
1.741178	1039.530640
1.741250	1026.419189
1.741322	1026.247925
1.741394	995.898071
1.741466	1099.184570
1.741538	1051.593384
1.741610	1021.254333
1.741681	1046.934204
1.741753	1055.375000
1.741825	1055.198975
1.741897	1098.085205
1.741969	1046.236084
1.742041	1024.537720
1.742113	1007.150635
1.742185	1080.139648
1.742257	1015.420105
1.742329	1036.760376
1.742401	1083.900757
1.742474	1100.921875
1.742546	1087.839111
1.742618	1053.265503
1.742690	1100.371582
1.742762	1108.783325
1.742834	1104.301636
1.742906	1104.117676
1.742978	1142.592773
1.743051	1035.033813
1.743123	1142.212158
1.743195	1129.141846
1.743267	1120.368530
1.743340	1115.890015
1.743412	1064.210083
1.743484	1132.680054
1.743556	1102.463257
1.743629	1059.389282
1.743701	1170.708984
1.743773	1076.186890
1.743845	1118.876465
1.743918	1157.265625
1.743990	1088.505615
1.744062	1126.887085
1.744135	1135.267456
1.744207	1019.428955
1.744280	1126.324219
1.744352	1168.955566
1.744424	1083.137451
1.744497	1207.090576
1.744569	1095.616089
1.744642	1181.014526
1.744714	1133.756348
1.744786	1154.955688
1.744859	1146.209717
1.744931	1175.952271
1.745004	1175.756592
1.745076	1167.011353
1.745149	1243.750122
1.745221	1145.256348
1.745294	1098.066772
1.745367	1140.603271
1.745439	1106.243774
1.745512	1042.002319
1.745584	1157.113281
1.745657	1118.499023
1.745729	1186.606934
1.745802	1126.662354
1.745875	1092.339355
1.745947	1147.618774
1.746020	1228.473022
1.746093	1177.090820
1.746166	1240.856812
1.746238	1151.118896
1.746311	1163.715576
1.746384	1095.330322
1.746456	1205.941406
1.746529	1112.008423
1.746602	1099.043945
1.746675	1171.266846
1.746747	1090.161621
1.746820	1175.135132
1.746893	1191.967896
1.746966	1247.102051
1.747039	1276.683960
1.747112	1276.471802
1.747184	1161.396362
1.747257	1250.526611
1.747330	1212.043701
1.747403	1207.590210
1.747476	1262.657471
1.747549	1262.447632
1.747622	1185.738647
1.747695	1253.529663
1.747768	1142.859131
1.747841	1231.874023
1.747914	1231.669312
1.747987	1150.782593
1.748060	1273.717407
1.748133	1273.505859
1.748206	1235.095581
1.748279	1200.941528
1.748352	1311.057617
1.748425	1302.355469
1.748498	1285.173218
1.748571	1297.682129
1.748644	1191.464478
1.748717	1360.842041
1.748791	1297.035889
1.748864	1140.015381
1.748937	1288.130737
1.749010	1287.916870
1.749083	1347.005127
1.749156	1211.256348
1.749229	1287.275635
1.749303	1291.295654
1.749376	1261.449951
1.749449	1172.361206
1.749522	1201.788208
1.749596	1265.052979
1.749669	1324.066406
1.749742	1340.764893
1.749816	1349.000122
1.749889	1259.985352
1.749962	1318.960449
1.750035	1238.433594
1.750109	1415.721558
1.750182	1347.881348
1.750256	1339.208496
1.750329	1284.075317
1.750402	1220.513794
1.750476	1279.426758
1.750549	1241.218140
1.750623	1219.906616
1.750696	1329.435425
1.750769	1367.192627
1.750843	1261.490112
1.750916	1286.590820
1.750990	1341.206787
1.751063	1353.635132
1.751137	1256.437378
1.751211	1437.496948
1.751284	1378.250977
1.751358	1424.378052
1.751431	1352.513428
1.751505	1381.778442
1.751578	1373.125244
1.751652	1351.840942
1.751725	1360.038208
1.751799	1364.022705
1.751873	1283.820923
1.751946	1283.608154
1.752020	1422.254639
1.752094	1291.597046
1.752167	1409.163940
1.752241	1350.049683
1.752315	1286.750122
1.752389	1358.011108
1.752462	1391.415527
1.752536	1370.170166
1.752610	1399.359131
1.752684	1331.901978
1.752757	1377.891113
1.752831	1474.267212
1.752905	1398.432129
1.752979	1410.796875
1.753053	1385.374634
1.753127	1448.106323
1.753200	1384.915771
1.753274	1447.626709
1.753348	1334.113281
1.753422	1401.006470
1.753496	1308.507813
1.753570	1438.281616
1.753644	1387.733032
1.753718	1421.038086
1.753792	1441.758545
1.753866	1508.567383
1.753940	1411.952881
1.754014	1549.958740
1.754088	1369.601685
1.754162	1490.817993
1.754236	1519.880249
1.754310	1398.225830
1.754384	1389.623169
1.754458	1427.057495
1.754532	1472.847778
1.754606	1543.724243
1.754680	1526.737427
1.754754	1472.116821
1.754828	1455.147339
1.754902	1434.002808
1.754977	1521.547119
1.755051	1370.837646
1.755125	1475.078125
1.755199	1483.190063
1.755273	1416.107788
1.755347	1461.816406
1.755422	1536.741333
1.755496	1523.961426
1.755570	1394.298462
1.755645	1623.629883
1.755719	1514.859009
1.755793	1539.643433
1.755867	1460.124878
1.755942	1497.423340
1.756016	1430.449219
1.756090	1526.116211
1.756165	1467.497437
1.756239	1446.413208
1.756314	1500.353516
1.756388	1462.602783
1.756462	1462.360962
1.756537	1628.742554
1.756611	1520.186035
1.756685	1511.606445
1.756760	1586.299805
1.756834	1498.618286
1.756909	1465.073486
1.756983	1577.190552
1.757058	1606.055298
1.757132	1489.307739
1.757207	1468.264648
1.757281	1588.624390
1.757356	1530.149658
1.757431	1592.256836
1.757505	1612.776978
1.757580	1562.639038
1.757654	1616.399414
1.757729	1582.895752
1.757804	1570.172485
1.757878	1569.913208
1.757953	1565.501343
1.758028	1664.886841
1.758102	1660.460693
1.758177	1656.036011
1.758252	1547.868164
1.758326	1601.550781
1.758401	1543.208618
1.758476	1621.760498
1.758550	1592.463501
1.758625	1654.395874
1.758700	1612.666016
1.758775	1587.529785
1.758850	1508.525879
1.758924	1616.010986
1.758999	1487.313232
1.759074	1652.757690
1.759149	1656.626465
1.759224	1614.944092
1.759298	1643.658936
1.759373	1639.248169
1.759448	1647.255249
1.759523	1779.404175
1.759598	1630.161743
1.759673	1646.439819
1.759748	1679.256958
1.759823	1625.219360
1.759898	1711.780640
1.759973	1628.817139
1.760048	1702.949097
1.760123	1648.943115
1.760198	1607.350952
1.760273	1689.712280
1.760348	1586.167480
1.760423	1685.024902
1.760498	1705.393311
1.760573	1713.369263
1.760648	1692.447021
1.760723	1700.422363
1.760798	1679.509033
1.760874	1633.847412
1.760949	1683.080322
1.761024	1666.304688
1.761099	1666.029907
1.761174	1682.247803
1.761249	1640.745605
1.761325	1776.494385
1.761400	1755.595825
1.761475	1697.620239
1.761550	1734.418213
1.761626	1713.536865
1.761701	1770.911987
1.761776	1712.971924
1.761851	1844.434937
1.761927	1683.592651
1.762002	1728.587646
1.762077	1794.142822
1.762153	1703.331909
1.762228	1863.483521
1.762303	1727.448364
1.762379	1743.612793
1.762454	1776.218384
1.762529	1747.149170
1.762605	1779.743286
1.762680	1820.545898
1.762756	1725.741089
1.762831	1733.673218
1.762907	1712.849731
1.762982	1827.560059
1.763058	1934.020142
1.763133	1876.224243
1.763209	1802.027954
1.763284	1809.939453
1.763360	1809.641235
1.763435	1727.286743
1.763511	1854.168701
1.763586	1862.066284
1.763662	1746.937378
1.763738	1799.951172
1.763813	1787.356445
1.763889	1860.839966
1.763964	1856.435425
1.764040	1856.129639
1.764116	1904.984985
1.764191	1925.151611
1.764267	1761.018921
1.764343	1760.729004
1.764419	1821.849731
1.764494	1887.043701
1.764570	1919.474609
1.764646	1714.557495
1.764722	1849.289795
1.764797	1938.980225
1.764873	1860.951050
1.764949	1877.002075
1.765025	1819.451904
1.765100	1876.384155
