#Wave		#Intensity
1.699584	444.748474
1.699649	401.708313
1.699714	454.234344
1.699779	444.594574
1.699844	458.856934
1.699908	525.682617
1.699973	453.920074
1.700038	420.400604
1.700103	487.198242
1.700168	405.928314
1.700233	487.029755
1.700298	472.623596
1.700363	443.902985
1.700428	434.281586
1.700493	419.891998
1.700558	434.131439
1.700623	510.373993
1.700688	457.826477
1.700753	410.065338
1.700818	481.505127
1.700883	428.989838
1.700948	447.978638
1.701013	476.490662
1.701078	452.587921
1.701143	442.983215
1.701208	519.105713
1.701273	476.161499
1.701338	428.471313
1.701403	447.437195
1.701468	437.841644
1.701534	437.766022
1.701599	494.780487
1.701664	451.884918
1.701729	485.097931
1.701794	508.789398
1.701859	427.879822
1.701925	489.600159
1.701990	499.020813
1.702055	522.693481
1.702120	460.841064
1.702186	394.259888
1.702251	474.929932
1.702316	498.590393
1.702381	517.495056
1.702447	517.405762
1.702512	408.157990
1.702577	521.972473
1.702643	536.115601
1.702708	483.843903
1.702773	497.988708
1.702839	521.612488
1.702904	531.004822
1.702969	492.990875
1.703035	545.040161
1.703100	544.946167
1.703166	416.930420
1.703231	407.384491
1.703297	478.357483
1.703362	535.099792
1.703427	497.130951
1.703493	501.779053
1.703558	539.556152
1.703624	444.820557
1.703689	572.489502
1.703755	458.858826
1.703820	539.184509
1.703886	529.633850
1.703952	505.902344
1.704017	444.361023
1.704083	467.916687
1.704148	576.525269
1.704214	510.278778
1.704280	505.466949
1.704345	514.826294
1.704411	547.794189
1.704476	542.978333
1.704542	505.118988
1.704608	457.832794
1.704674	462.473114
1.704739	500.139954
1.704805	509.488861
1.704871	495.251160
1.704936	537.608765
1.705002	561.091553
1.705068	546.852295
1.705134	509.050781
1.705199	570.227295
1.705265	518.299316
1.705331	570.031189
1.705397	522.831238
1.705463	513.322571
1.705528	555.611450
1.705594	484.899506
1.705660	513.057861
1.705726	536.500366
1.705792	531.702820
1.705858	531.611450
1.705924	569.149841
1.705989	545.537476
1.706056	568.954224
1.706121	451.324127
1.706187	507.652405
1.706253	516.964539
1.706319	460.489288
1.706385	526.183105
1.706451	544.881714
1.706517	558.877502
1.706583	539.998901
1.706649	497.652649
1.706715	506.955261
1.706781	516.254639
1.706847	572.475037
1.706913	572.376770
1.706980	478.462341
1.707046	590.940247
1.707112	600.217224
1.707178	571.983826
1.707244	604.698792
1.707310	567.100708
1.707376	524.829590
1.707443	618.443054
1.707509	604.283813
1.707575	533.926636
1.707641	604.076477
1.707707	533.743469
1.707773	543.014221
1.707840	575.683533
1.707906	580.264343
1.707972	542.734863
1.708038	580.065369
1.708105	640.768738
1.708171	495.692291
1.708237	481.580658
1.708303	556.293945
1.708370	598.263977
1.708436	579.468872
1.708503	574.697266
1.708569	560.584106
1.708635	569.829529
1.708702	607.091309
1.708768	490.258972
1.708834	574.204956
1.708901	564.771484
1.708967	574.008240
1.709034	587.907715
1.709100	485.174011
1.709167	643.678284
1.709233	559.624390
1.709299	550.203064
1.709366	624.699890
1.709432	582.642639
1.709499	563.901489
1.709566	577.783569
1.709632	591.660889
1.709699	656.770874
1.709765	577.486877
1.709832	619.295227
1.709898	544.700256
1.709965	581.845154
1.710032	563.129700
1.710098	637.484009
1.710165	655.984436
1.710231	586.098511
1.710298	604.601379
1.710365	544.048157
1.710431	562.551819
1.710498	641.478271
1.710565	576.302185
1.710631	669.139648
1.710698	571.459045
1.710765	631.749084
1.710832	622.352234
1.710898	645.463928
1.710965	492.140137
1.711032	598.822876
1.711099	626.567932
1.711165	723.910278
1.711232	612.434753
1.711299	603.052368
1.711366	640.053833
1.711433	616.758057
1.711500	649.108032
1.711566	593.368835
1.711633	611.807007
1.711700	583.897827
1.711767	551.364868
1.711834	648.553711
1.711901	611.389038
1.711968	634.439331
1.712035	541.727905
1.712102	564.782166
1.712169	643.371460
1.712236	601.611511
1.712303	666.286682
1.712370	693.930115
1.712437	647.557495
1.712504	610.450012
1.712571	665.831726
1.712638	679.587219
1.712705	688.715698
1.712772	683.976685
1.712839	660.756592
1.712906	651.404053
1.712973	651.292847
1.713040	609.616943
1.713107	586.425293
1.713175	641.726074
1.713242	687.776062
1.713309	683.043579
1.713376	636.783325
1.713443	678.196960
1.713511	659.630066
1.713578	645.681580
1.713645	594.847961
1.713712	627.019592
1.713779	608.474060
1.713847	603.761475
1.713914	681.995850
1.713981	580.519104
1.714048	677.156860
1.714116	677.041443
1.714183	667.716125
1.714250	709.039734
1.714318	722.728943
1.714385	616.746338
1.714453	685.668274
1.714520	662.546326
1.714587	745.237610
1.714655	699.116150
1.714722	744.983704
1.714789	675.888550
1.714857	602.219849
1.714924	703.236206
1.714992	634.183472
1.715059	698.401917
1.715127	735.034729
1.715194	633.859497
1.715262	730.192017
1.715329	688.743103
1.715397	729.943359
1.715464	720.638977
1.715532	679.212830
1.715599	724.982117
1.715667	734.034180
1.715734	683.452942
1.715802	697.095093
1.715870	646.537354
1.715937	710.611633
1.716005	678.403992
1.716073	737.867981
1.716140	691.919922
1.716208	700.965149
1.716275	783.298340
1.716343	682.407043
1.716411	737.240540
1.716478	645.548035
1.716546	759.877625
1.716614	636.174866
1.716682	755.043213
1.716749	754.914795
1.716817	741.063049
1.716885	640.315979
1.716953	690.509094
1.717021	731.540894
1.717088	726.845154
1.717156	786.139099
1.717224	703.749084
1.717292	731.043579
1.717360	671.532166
1.717427	717.092712
1.717495	790.037964
1.717563	812.733276
1.717631	712.162109
1.717699	821.585876
1.717767	771.246765
1.717835	775.678589
1.717903	688.868042
1.717971	761.731262
1.718039	743.359924
1.718107	843.547424
1.718175	843.404175
1.718243	774.888428
1.718311	811.216003
1.718379	742.728943
1.718447	719.823608
1.718515	737.921692
1.718583	705.916321
1.718651	774.099365
1.718719	714.782166
1.718787	805.700439
1.718855	737.295593
1.718923	755.372192
1.718992	759.793701
1.719060	750.566956
1.719128	691.314087
1.719196	863.995972
1.719264	777.464417
1.719332	704.599670
1.719401	745.385437
1.719469	840.688477
1.719537	754.219543
1.719605	754.091614
1.719674	763.047607
1.719742	831.035889
1.719810	762.788818
1.719878	780.818054
1.719947	807.918884
1.720015	789.629456
1.720083	766.808960
1.720152	762.142395
1.720220	766.548950
1.720288	848.049438
1.720357	775.357605
1.720425	852.295471
1.720493	802.291138
1.720562	779.495422
1.720630	792.956848
1.720699	738.457520
1.720767	774.569580
1.720835	833.313721
1.720904	787.891418
1.720972	846.613464
1.721041	733.305603
1.721109	846.326660
1.721178	787.357727
1.721246	841.515686
1.721315	773.520508
1.721383	782.434998
1.721452	764.214539
1.721520	777.648804
1.721589	818.201172
1.721658	863.259460
1.721726	826.961975
1.721795	903.630554
1.721864	880.890625
1.721932	758.792725
1.722001	839.949707
1.722069	808.201904
1.722138	799.036438
1.722207	830.496216
1.722275	816.817261
1.722344	888.871643
1.722413	843.608521
1.722481	875.039368
1.722550	811.754822
1.722619	784.563599
1.722688	883.611755
1.722756	833.880249
1.722825	883.312866
1.722894	797.550659
1.722963	819.941650
1.723032	927.908875
1.723101	860.197205
1.723169	950.109558
1.723238	819.387207
1.723307	904.774597
1.723376	904.621643
1.723445	845.970703
1.723514	809.835022
1.723583	877.172974
1.723651	904.010132
1.723720	822.914856
1.723789	926.184753
1.723858	908.047119
1.723927	876.432007
1.723996	831.346252
1.724065	840.191772
1.724134	853.526550
1.724203	911.771667
1.724272	938.562012
1.724341	839.624146
1.724410	906.820496
1.724479	902.178833
1.724549	902.026489
1.724618	964.691223
1.724687	960.042114
1.724756	923.996643
1.724825	856.570679
1.724894	838.490417
1.724963	981.809570
1.725032	909.925537
1.725101	864.955566
1.725171	923.060974
1.725240	1016.987732
1.725309	958.584290
1.725378	913.636414
1.725447	909.004333
1.725517	828.263184
1.725586	859.457825
1.725655	868.263916
1.725724	899.441284
1.725794	961.926575
1.725863	934.924316
1.725932	952.656860
1.726002	934.608887
1.726071	1019.401367
1.726140	961.115479
1.726210	1032.466187
1.726279	889.290527
1.726348	938.289001
1.726418	897.925171
1.726487	942.439087
1.726557	879.759216
1.726626	1018.026794
1.726696	1031.247925
1.726765	937.340088
1.726834	910.405457
1.726904	959.334167
1.726973	861.024597
1.727043	981.313354
1.727112	967.768677
1.727182	963.146545
1.727251	998.650330
1.727321	958.364441
1.727390	935.919128
1.727460	962.497498
1.727530	971.245850
1.727599	1037.899780
1.727669	877.389709
1.727738	944.036987
1.727808	957.234680
1.727878	970.427979
1.727947	974.715271
1.728017	1019.051147
1.728087	947.691406
1.728156	983.119873
1.728226	934.028992
1.728296	898.295654
1.728365	929.268188
1.728435	978.012329
1.728505	968.958130
1.728575	1022.123169
1.728644	1030.837646
1.728714	959.583862
1.728784	994.956482
1.728854	1030.317139
1.728923	1030.143799
1.728993	963.377502
1.729063	994.286804
1.729133	1038.499878
1.729203	1007.264038
1.729273	949.419556
1.729343	935.952454
1.729412	926.924866
1.729482	993.283447
1.729552	1041.885498
1.729622	935.322754
1.729692	997.214294
1.729762	1050.222412
1.729832	1089.920898
1.729902	1027.719971
1.729972	956.681885
1.730042	1018.517700
1.730112	991.780884
1.730182	965.053040
1.730252	1000.299622
1.730322	1000.131409
1.730392	999.963257
1.730462	951.132568
1.730532	1061.550903
1.730602	1096.751587
1.730672	1070.037354
1.730743	994.702209
1.730813	1091.778442
1.730883	1069.497925
1.730953	1033.968872
1.731023	985.197876
1.731093	998.283875
1.731164	1011.365479
1.731234	1139.250854
1.731304	1037.515503
1.731374	1054.998047
1.731444	1032.753418
1.731515	1050.230835
1.731585	1102.998413
1.731655	1124.869385
1.731725	1058.522827
1.731796	1080.393921
1.731866	1075.803467
1.731936	1150.563721
1.732007	1088.664795
1.732077	1079.668335
1.732147	1039.832520
1.732218	1048.468628
1.732288	1092.338501
1.732358	1065.731934
1.732429	1083.165527
1.732499	1122.605103
1.732570	1078.400269
1.732640	1131.030029
1.732710	1100.039185
1.732781	1060.259766
1.732851	1121.663330
1.732922	1183.046387
1.732992	1147.670166
1.733063	1173.856445
1.733133	1120.910767
1.733204	1125.117676
1.733274	1116.140381
1.733345	1089.592163
1.733416	1128.944336
1.733486	1098.010742
1.733557	1067.087402
1.733627	1137.157593
1.733698	1145.746460
1.733769	1088.496094
1.733839	1070.760132
1.733910	1175.883545
1.733980	1092.335571
1.734051	1157.944702
1.734122	1131.438110
1.734193	1056.708740
1.734263	1144.210571
1.734334	1122.102661
1.734405	1174.504395
1.734475	1108.581299
1.734546	1213.539795
1.734617	1081.928101
1.734688	1169.337646
1.734758	1134.111206
1.734829	1120.786987
1.734900	1181.881958
1.734971	1203.567017
1.735042	1177.110107
1.735113	1141.911743
1.735183	1176.715698
1.735254	1198.386963
1.735325	1154.456787
1.735396	1128.030151
1.735467	1202.156372
1.735538	1145.135376
1.735609	1061.913330
1.735680	1245.245239
1.735751	1092.137451
1.735822	1196.782227
1.735893	1240.252808
1.735964	1187.648804
1.736035	1126.331299
1.736106	1113.047974
1.736177	1139.046631
1.736248	1186.853760
1.736319	1182.292358
1.736390	1147.198730
1.736461	1125.200439
1.736532	1107.570068
1.736603	1290.495605
1.736674	1259.766235
1.736745	1202.897217
1.736817	1263.702271
1.736888	1215.565308
1.736959	1228.430420
1.737030	1245.646484
1.737101	1275.920898
1.737172	1262.645508
1.737244	1231.961792
1.737315	1179.525757
1.737386	1266.363770
1.737457	1222.641602
1.737528	1209.386230
1.737600	1135.241089
1.737671	1261.167969
1.737742	1213.127686
1.737814	1199.882690
1.737885	1269.228760
1.737956	1286.400391
1.738028	1138.447754
1.738099	1251.214355
1.738170	1320.505493
1.738242	1203.022583
1.738313	1246.244629
1.738384	1120.130249
1.738456	1284.895874
1.738527	1328.082520
1.738599	1258.429932
1.738670	1266.896973
1.738742	1240.657471
1.738813	1227.438477
1.738885	1331.309692
1.738956	1244.371460
1.739028	1335.199951
1.739099	1430.332397
1.739171	1222.079834
1.739242	1256.538818
1.739314	1303.982788
1.739385	1351.410889
1.739457	1329.531494
1.739528	1294.669556
1.739600	1298.782593
1.739672	1207.666016
1.739743	1181.497437
1.739815	1272.169312
1.739887	1371.463745
1.739958	1375.560425
1.740030	1284.507080
1.740101	1336.183228
1.740173	1387.842041
1.740245	1279.541016
1.740317	1365.768555
1.740388	1309.363281
1.740460	1339.388916
1.740532	1373.724487
1.740604	1386.452759
1.740675	1425.087402
1.740747	1316.906372
1.740819	1321.003662
1.740891	1363.946045
1.740963	1372.349609
1.741034	1346.231567
1.741106	1380.520020
1.741178	1358.722656
1.741250	1371.434082
1.741322	1466.068481
1.741394	1435.645264
1.741466	1409.542603
1.741538	1366.209351
1.741610	1417.690674
1.741681	1395.912354
1.741753	1399.987183
1.741825	1356.684326
1.741897	1412.438965
1.741969	1317.482422
1.742041	1407.663208
1.742113	1355.779785
1.742185	1355.553711
1.742257	1484.406494
1.742329	1393.818970
1.742401	1458.104492
1.742474	1483.664307
1.742546	1461.918213
1.742618	1478.870728
1.742690	1341.077759
1.742762	1469.782593
1.742834	1405.084229
1.742906	1422.034790
1.742978	1524.888916
1.743051	1546.108521
1.743123	1391.265869
1.743195	1403.914063
1.743267	1468.069092
1.743340	1356.235474
1.743412	1480.453491
1.743484	1497.368774
1.743556	1458.511597
1.743629	1526.893066
1.743701	1453.737549
1.743773	1406.331787
1.743845	1436.105713
1.743918	1504.445313
1.743990	1427.056641
1.744062	1478.235840
1.744135	1409.445313
1.744207	1332.110962
1.744280	1528.888794
1.744352	1442.996460
1.744424	1442.756226
1.744497	1459.637939
1.744569	1412.317627
1.744642	1480.547241
1.744714	1574.423950
1.744786	1518.552856
1.744859	1582.453735
1.744931	1453.904663
1.745004	1496.417480
1.745076	1517.542236
1.745149	1517.289673
1.745221	1499.943848
1.745294	1533.875366
1.745367	1567.795532
1.745439	1494.924072
1.745512	1558.732910
1.745584	1460.268433
1.745657	1442.949219
1.745729	1570.760254
1.745802	1570.499023
1.745875	1561.703857
1.745947	1574.242798
1.746020	1620.901855
1.746093	1475.628296
1.746166	1667.268066
1.746238	1598.776245
1.746311	1641.137451
1.746384	1623.816528
1.746456	1517.014648
1.746529	1508.241333
1.746602	1614.487061
1.746675	1592.922852
1.746747	1609.691895
1.746820	1600.908813
1.746893	1545.301270
1.746966	1694.015625
1.747039	1523.509644
1.747112	1616.864258
1.747184	1680.408569
1.747257	1633.340942
1.747330	1577.783325
1.747403	1624.293945
1.747476	1590.013062
1.747549	1593.999512
1.747622	1576.734863
1.747695	1640.211670
1.747768	1635.690674
1.747841	1588.692627
1.747914	1601.170166
1.747987	1651.861328
1.748060	1511.478027
1.748133	1506.981934
1.748206	1629.816772
1.748279	1739.879883
1.748352	1633.518311
1.748425	1433.863647
1.748498	1700.839844
1.748571	1704.798096
1.748644	1577.312500
1.748717	1674.556396
1.748791	1614.936768
1.748864	1568.051025
1.748937	1741.518799
1.749010	1516.691528
1.749083	1707.053711
1.749156	1634.772583
1.749229	1651.439087
1.749303	1638.463623
1.749376	1625.492554
1.749449	1709.869873
1.749522	1764.597534
1.749596	1611.990601
1.749669	1687.867432
1.749742	1734.112305
1.749816	1797.257202
1.749889	1687.027344
1.749962	1703.657227
1.750035	1728.734985
1.750109	1652.379517
1.750182	1702.809448
1.750256	1689.853027
1.750329	1824.738525
1.750402	1837.105591
1.750476	1769.240356
1.750549	1735.172241
1.750623	1751.769043
1.750696	1717.715088
1.750769	1772.286621
1.750843	1852.154297
1.750916	1746.388916
1.750990	1640.658569
1.751063	1745.809814
1.751137	1787.682739
1.751211	1745.230957
1.751284	1698.578491
1.751358	1812.078491
1.751431	1820.204956
1.751505	1744.073975
1.751578	1823.813599
1.751652	1794.031860
1.751725	1911.632568
1.751799	1873.426270
1.751873	1692.118042
1.751946	1851.762573
1.752020	1750.467163
1.752094	1872.184692
1.752167	1951.797119
1.752241	1745.391357
1.752315	1795.562988
1.752389	1866.739746
1.752462	1820.190063
1.752536	1782.061768
1.752610	1903.632690
1.752684	1798.277710
1.752757	1726.564697
1.752831	1848.084351
1.752905	1931.768066
1.752979	1876.863770
1.753053	1796.788940
1.753127	1960.190308
1.753200	1821.374146
1.753274	1896.600830
1.753348	1938.239990
1.753422	1883.388916
1.753496	1736.289307
1.753570	1912.117920
1.753644	1832.142944
1.753718	1794.112915
1.753792	1869.256714
1.753866	1919.232910
1.753940	1956.623169
1.754014	1964.677368
1.754088	1884.772827
1.754162	2047.780884
1.754236	1792.035034
1.754310	1950.817993
1.754384	1971.423218
1.754458	1912.508179
1.754532	1962.402344
1.754606	1953.710571
1.754680	1894.827515
1.754754	1978.156982
1.754828	1944.377930
1.754902	1990.044678
1.754977	1935.374512
1.755051	1947.592407
1.755125	1963.984985
1.755199	2013.796143
1.755273	1942.448730
1.755347	2017.306641
1.755422	2050.380371
1.755496	1857.980347
1.755570	2074.749512
1.755645	1978.407593
1.755719	2040.677979
1.755793	2023.650513
1.755867	2048.346680
1.755942	1989.612549
1.756016	2001.794800
1.756090	2068.179199
1.756165	2038.654175
1.756239	2130.020508
1.756314	2012.974243
1.756388	2016.808350
1.756462	2008.142456
1.756537	1986.982544
1.756611	2082.446777
1.756685	1919.698486
1.756760	2090.085449
1.756834	2098.065674
1.756909	2006.151733
1.756983	2180.601318
1.757058	2067.900146
1.757132	2050.918213
1.757207	2088.013672
1.757281	2075.192627
1.757356	2137.219971
1.757431	2053.720215
1.757505	2157.297119
1.757580	2111.225098
1.757654	2031.926270
1.757729	2031.590576
1.757804	2151.718018
1.757878	2084.911133
1.757953	2180.074707
1.758028	2154.803711
1.758102	2166.901123
1.758177	2203.897461
1.758252	2087.339600
1.758326	2111.889648
1.758401	2086.650391
1.758476	2144.374023
1.758550	2102.549316
1.758625	2073.177734
1.758700	2097.709473
1.758775	2171.972900
1.758850	2130.171143
1.758924	2129.819580
1.758999	2071.466797
1.759074	2170.538818
1.759149	2294.427490
1.759224	2140.836182
1.759298	2115.641602
1.759373	2061.478760
1.759448	2342.579102
1.759523	2155.975830
1.759598	2308.706055
1.759673	2204.905518
1.759748	2154.908447
1.759823	2171.094482
1.759898	2129.388916
1.759973	2286.131592
1.760048	2215.487061
1.760123	2095.273682
1.760198	2156.907959
1.760273	2230.916016
1.760348	2214.025391
1.760423	2321.039063
1.760498	2287.622070
1.760573	2192.286865
1.760648	2270.355713
1.760723	2236.963379
1.760798	2273.733398
1.760874	2289.861816
1.760949	2231.731445
1.761024	2338.600830
1.761099	2309.348389
1.761174	2259.489746
1.761249	2279.729492
1.761325	2341.180420
1.761400	2287.219971
1.761475	2336.288086
1.761550	2274.106445
1.761626	2319.041504
1.761701	2401.027100
1.761776	2470.632568
1.761851	2322.011719
1.761927	2259.883545
1.762002	2358.287598
1.762077	2374.358887
1.762153	2357.510254
1.762228	2299.530518
1.762303	2360.845947
1.762379	2274.098877
1.762454	2269.612305
1.762529	2409.010254
1.762605	2396.282471
1.762680	2375.339844
1.762756	2432.473145
1.762831	2366.340576
1.762907	2378.273438
1.762982	2381.988525
1.763058	2278.940918
1.763133	2303.198730
1.763209	2499.852051
1.763284	2409.148438
1.763360	2306.164063
1.763435	2338.606934
1.763511	2444.877441
1.763586	2362.445313
1.763662	2468.676758
1.763738	2496.970947
1.763813	2558.051514
1.763889	2430.568359
1.763964	2421.971924
1.764040	2487.131836
1.764116	2421.174316
1.764191	2547.753906
1.764267	2494.094238
1.764343	2456.831055
1.764419	2509.649170
1.764494	2410.995117
1.764570	2672.530762
1.764646	2520.686035
